70BCSV 	
// AQ6370D OPTICAL SPECTRUM ANALYZER //                 
35
"CTRWL",1547.216092
"SPAN",  79.904370
"START WL",1508.294864
"STOP WL",1588.199234
"WLFREQ", 1
"REFL",-20.0
"LSCL",10.0
"RESLN",0.100
"AVG",   1
"SMPLAUTO",      1
"SMPL",       3997
"SMPLINTVL",0.0200
"NORM_AUTO"
"MEAS"
"LSUNT",0
"NMSKH","OFF"
"RESCOR",0
"RESCORMODE",2
"SMOOTH",0
"FIBERTYPE",0
"MEASWL",1
"SWPSPD",0
"MODELNAME","AQ6370D"
"NEBWCAL0",    0
"NEBWCAL1",    0
"NEBWCALWL",   0
"RESPARM", 9622
"FREQPARM", 9622







"[TRACE DATA]"
198.76250, -65.039
198.75986, -62.464
198.75722, -79.028
198.75459,-210.000
198.75197,-210.000
198.74933,-210.000
198.74670, -64.922
198.74406, -62.666
198.74143, -66.863
198.73879, -65.680
198.73616, -63.521
198.73352,-210.000
198.73089, -65.680
198.72825, -63.917
198.72562, -62.666
198.72298, -63.848
198.72035, -68.909
198.71771, -71.516
198.71508, -65.010
198.71244,-210.000
198.70981, -75.951
198.70718, -62.178
198.70454, -65.099
198.70191, -65.579
198.69927, -64.203
198.69664, -67.145
198.69401,-210.000
198.69137, -65.579
198.68874, -67.002
198.68611, -65.100
198.68349, -63.650
198.68085, -59.213
198.67822,-210.000
198.67559, -66.730
198.67295, -64.669
198.67032, -77.223
198.66769, -65.580
198.66505, -62.881
198.66242, -68.302
198.65979,-210.000
198.65715,-210.000
198.65452, -67.768
198.65189,-210.000
198.64926,-210.000
198.64662,-210.000
198.64399, -64.131
198.64136, -63.523
198.63873, -64.589
198.63609, -65.787
198.63346, -65.193
198.63083, -62.827
198.62820, -65.480
198.62557,-210.000
198.62293, -65.101
198.62030, -61.911
198.61768, -63.338
198.61505,-210.000
198.61242, -69.619
198.60979, -63.783
198.60716, -64.204
198.60452,-210.000
198.60189, -64.132
198.59926,-210.000
198.59663,-210.000
198.59400, -67.294
198.59137,-210.000
198.58874, -65.383
198.58611, -63.162
198.58348, -71.519
198.58085, -72.396
198.57821,-210.000
198.57558, -72.911
198.57295, -66.353
198.57032, -66.866
198.56769, -67.940
198.56506, -68.303
198.56243, -67.769
198.55980, -65.789
198.55717, -68.498
198.55454, -62.228
198.55191, -74.973
198.54929, -65.789
198.54666, -62.619
198.54403, -64.511
198.54140, -64.755
198.53877, -67.448
198.53615, -72.398
198.53352,-210.000
198.53089,-210.000
198.52826, -69.137
198.52563, -62.671
198.52300, -61.743
198.52037, -61.500
198.51774, -62.671
198.51511, -69.024
198.51248,-210.000
198.50985, -63.282
198.50722,-210.000
198.50460,-210.000
198.50197, -64.756
198.49934, -63.050
198.49671,-210.000
198.49408,-210.000
198.49145,-210.000
198.48882, -63.392
198.48620,-210.000
198.48358, -68.305
198.48095,-210.000
198.47832, -62.620
198.47570, -69.622
198.47307,-210.000
198.47044, -67.608
198.46781, -64.435
198.46518, -63.591
198.46256, -65.016
198.45993, -62.672
198.45730, -64.513
198.45467, -62.230
198.45205, -74.174
198.44942,-210.000
198.44679, -61.051
198.44417, -63.051
198.44154, -69.623
198.43891, -63.223
198.43628, -62.621
198.43366, -64.842
198.43103, -62.621
198.42840, -65.387
198.42578, -65.387
198.42315, -63.343
198.42052, -62.726
198.41790, -63.722
198.41528, -79.035
198.41266, -66.357
198.41003, -65.485
198.40740, -66.480
198.40478,-210.000
198.40215, -63.925
198.39953, -63.405
198.39690, -64.930
198.39427, -60.393
198.39165, -68.502
198.38902, -61.582
198.38640, -65.388
198.38377, -67.299
198.38115, -74.977
198.37852, -61.831
198.37590, -64.360
198.37327, -60.743
198.37065, -71.144
198.36802, -61.347
198.36539, -62.779
198.36277, -63.344
198.36014, -62.522
198.35752, -62.328
198.35490, -61.348
198.35227, -60.778
198.34965, -69.377
198.34703, -65.689
198.34441, -66.738
198.34179, -64.845
198.33916, -62.328
198.33654, -65.019
198.33391, -71.798
198.33129, -60.550
198.32866, -61.961
198.32604, -62.202
198.32342,-210.000
198.32079, -65.690
198.31817, -64.067
198.31554, -64.286
198.31292, -65.201
198.31030, -61.237
198.30767, -66.012
198.30505, -62.889
198.30243, -68.310
198.29980, -67.301
198.29718, -63.858
198.29456, -68.125
198.29193, -63.112
198.28931, -68.707
198.28669, -62.189
198.28406, -64.847
198.28145, -61.389
198.27883, -62.525
198.27621, -64.440
198.27359, -75.963
198.27096, -61.709
198.26834, -63.998
198.26572, -60.617
198.26310, -63.113
198.26047, -65.296
198.25785, -71.148
198.25523, -61.668
198.25261, -64.763
198.24999, -61.835
198.24736, -61.276
198.24474, -62.283
198.24212, -60.649
198.23950, -64.680
198.23688, -69.893
198.23425, -62.891
198.23163, -63.289
198.22901, -61.092
198.22639,-210.000
198.22377, -62.526
198.22115, -63.104
198.21853, -61.943
198.21590, -61.627
198.21330, -62.945
198.21068, -63.502
198.20805, -62.128
198.20543, -62.837
198.20281, -66.014
198.20019, -60.747
198.19757, -60.951
198.19495, -61.792
198.19233, -62.526
198.18971, -61.165
198.18709, -63.229
198.18447, -65.692
198.18185, -60.986
198.17923, -69.629
198.17661, -65.797
198.17399, -60.882
198.17137, -70.799
198.16875, -63.289
198.16613, -62.783
198.16351, -64.680
198.16089, -65.904
198.15827, -64.848
198.15565, -69.144
198.15303, -61.964
198.15041, -66.243
198.14781, -67.949
198.14519, -62.190
198.14257, -59.514
198.13995, -62.098
198.13733, -60.585
198.13471, -66.741
198.13209, -64.069
198.12947, -62.783
198.12685, -60.359
198.12423, -60.917
198.12162, -63.298
198.11900, -59.641
198.11638, -62.476
198.11376, -63.661
198.11114, -60.521
198.10852, -60.553
198.10591, -60.781
198.10329, -66.485
198.10067, -62.678
198.09805, -63.229
198.09543, -62.009
198.09282,-210.000
198.09020, -59.248
198.08758, -59.590
198.08496, -61.835
198.08234, -63.001
198.07974, -62.427
198.07712, -61.586
198.07450, -63.348
198.07189, -61.239
198.06927, -58.575
198.06665, -61.276
198.06404, -66.014
198.06142, -59.719
198.05880, -62.783
198.05618, -58.953
198.05357, -61.092
198.05095, -61.750
198.04833, -62.283
198.04572, -60.217
198.04310, -63.057
198.04048, -63.289
198.03787, -59.926
198.03525, -62.653
198.03264, -62.576
198.03002, -63.348
198.02740, -61.627
198.02479, -67.949
198.02217, -59.019
198.01956, -59.319
198.01694, -69.380
198.01434, -66.485
198.01172, -66.015
198.00911, -58.932
198.00649, -60.074
198.00387, -60.650
198.00126, -61.669
197.99864, -59.668
197.99603, -62.145
197.99341, -62.892
197.99080, -58.210
197.98818, -60.782
197.98557, -60.307
197.98295, -59.320
197.98034, -59.880
197.97772, -60.277
197.97511, -61.314
197.97249, -61.352
197.96988, -59.826
197.96726, -60.272
197.96465, -59.642
197.96203, -59.907
197.95942, -60.460
197.95681, -59.392
197.95419, -60.987
197.95158, -60.368
197.94896, -62.332
197.94636, -60.553
197.94375, -60.073
197.94113, -60.247
197.93852, -60.336
197.93591, -62.627
197.93329, -58.099
197.93068, -59.514
197.92807, -58.997
197.92545, -61.129
197.92284, -59.879
197.92023, -60.159
197.91761, -61.709
197.91500, -61.467
197.91239, -60.397
197.90977, -59.933
197.90716, -59.155
197.90455, -64.177
197.90193, -59.319
197.89932, -62.323
197.89671, -60.101
197.89410, -60.045
197.89148, -59.465
197.88887, -60.188
197.88626, -58.760
197.88365, -60.986
197.88103, -61.546
197.87844, -58.781
197.87582, -61.750
197.87321, -59.155
197.87060, -61.709
197.86799, -60.367
197.86537, -58.359
197.86276, -59.201
197.86015, -57.922
197.85754, -59.615
197.85493, -60.247
197.85232, -58.845
197.84971, -59.488
197.84709, -61.626
197.84448, -59.869
197.84187, -58.263
197.83926, -57.653
197.83665, -59.563
197.83404, -61.312
197.83143, -59.414
197.82882, -57.702
197.82620, -56.681
197.82359, -60.713
197.82098, -59.905
197.81837, -57.588
197.81576, -60.584
197.81316, -60.916
197.81055, -58.377
197.80794, -58.153
197.80533, -57.836
197.80272, -59.223
197.80011, -58.263
197.79750, -58.759
197.79489, -58.689
197.79228, -58.529
197.78967, -58.865
197.78706, -57.541
197.78445, -58.097
197.78184, -58.929
197.77923, -58.115
197.77662, -57.540
197.77402, -58.396
197.77141, -58.593
197.76880, -58.613
197.76619, -58.553
197.76358, -58.434
197.76097, -57.415
197.75836, -58.415
197.75575, -58.843
197.75314, -57.446
197.75053, -57.160
197.74792, -57.636
197.74533, -59.222
197.74272, -57.835
197.74011, -57.875
197.73750, -58.593
197.73489, -58.332
197.73229, -58.619
197.72968, -58.318
197.72707, -57.635
197.72446, -58.472
197.72185, -58.280
197.71925, -58.885
197.71664, -57.667
197.71403, -57.218
197.71142, -57.352
197.70881, -58.472
197.70621, -58.299
197.70360, -58.798
197.70099, -58.260
197.69838, -56.918
197.69578, -56.973
197.69317, -58.413
197.69056, -57.324
197.68795, -57.115
197.68535, -56.554
197.68274, -56.770
197.68015, -56.987
197.67754, -60.393
197.67493, -57.188
197.67233, -56.400
197.66972, -57.505
197.66711, -57.649
197.66451, -57.100
197.66190, -58.510
197.65929, -58.490
197.65669, -56.651
197.65408, -57.085
197.65147, -57.201
197.64887, -57.427
197.64626, -56.972
197.64366, -57.553
197.64105, -57.601
197.63844, -56.781
197.63584, -57.928
197.63323, -57.488
197.63063, -57.056
197.62802, -57.319
197.62541, -57.215
197.62281, -57.028
197.62020, -56.862
197.61760, -56.875
197.61499, -56.278
197.61240, -56.338
197.60980, -58.296
197.60719, -58.075
197.60459, -56.584
197.60198, -56.559
197.59938, -56.313
197.59677, -56.984
197.59417, -55.924
197.59156, -56.197
197.58896, -56.148
197.58635, -56.753
197.58375, -56.662
197.58114, -56.361
197.57854, -56.597
197.57594, -56.584
197.57333, -56.324
197.57073, -56.558
197.56812, -56.635
197.56552, -57.614
197.56292, -56.470
197.56031, -56.409
197.55771, -56.726
197.55510, -56.409
197.55250, -56.520
197.54990, -56.109
197.54731, -55.783
197.54470, -57.614
197.54210, -56.312
197.53950, -56.395
197.53689, -56.725
197.53429, -55.771
197.53169, -55.495
197.52908, -55.782
197.52648, -55.505
197.52388, -56.240
197.52127, -55.349
197.51867, -54.809
197.51607, -55.889
197.51347, -56.078
197.51086, -55.688
197.50826, -55.666
197.50566, -55.546
197.50306, -55.749
197.50045, -56.334
197.49785, -56.310
197.49525, -56.009
197.49265, -55.300
197.49005, -55.025
197.48744, -55.584
197.48484, -55.474
197.48224, -55.179
197.47965, -55.105
197.47705, -55.464
197.47445, -55.813
197.47185, -55.760
197.46925, -55.281
197.46664, -55.824
197.46404, -55.048
197.46144, -55.425
197.45884, -54.569
197.45624, -55.594
197.45364, -54.404
197.45104, -55.310
197.44844, -54.893
197.44584, -55.574
197.44324, -55.052
197.44063, -55.446
197.43803, -55.626
197.43543, -55.198
197.43283, -55.292
197.43023, -54.981
197.42763, -54.583
197.42503, -55.226
197.42243, -54.351
197.41983, -54.766
197.41723, -54.955
197.41463, -54.716
197.41204, -55.368
197.40944, -55.264
197.40685, -54.742
197.40425, -55.331
197.40165, -54.886
197.39905, -55.496
197.39645, -55.447
197.39385, -55.116
197.39125, -54.969
197.38865, -54.751
197.38605, -55.709
197.38345, -55.321
197.38085, -54.619
197.37825, -54.777
197.37565, -55.418
197.37305, -53.960
197.37046, -54.376
197.36786, -54.735
197.36526, -54.836
197.36266, -54.461
197.36006, -54.786
197.35746, -55.352
197.35486, -54.276
197.35227, -54.629
197.34967, -54.880
197.34708, -54.828
197.34448, -54.509
197.34189, -54.711
197.33929, -54.778
197.33669, -54.637
197.33409, -54.377
197.33149, -54.703
197.32890, -54.346
197.32630, -54.795
197.32370, -54.146
197.32110, -54.573
197.31851, -54.828
197.31591, -54.123
197.31331, -54.770
197.31071, -54.332
197.30812, -54.838
197.30552, -54.855
197.30292, -54.796
197.30033, -54.502
197.29773, -54.118
197.29513, -54.363
197.29253, -54.447
197.28994, -54.220
197.28734, -53.805
197.28474, -54.183
197.28215, -54.679
197.27956, -54.463
197.27697, -53.667
197.27437, -54.061
197.27178, -54.705
197.26918, -54.169
197.26658, -53.628
197.26399, -54.019
197.26139, -54.583
197.25880, -54.688
197.25620, -54.169
197.25360, -53.963
197.25101, -53.896
197.24841, -54.731
197.24582, -54.504
197.24322, -54.327
197.24063, -53.827
197.23803, -53.502
197.23544, -54.481
197.23284, -53.902
197.23025, -53.855
197.22765, -54.335
197.22506, -54.063
197.22246, -54.223
197.21987, -54.142
197.21727, -53.958
197.21469, -53.875
197.21209, -54.260
197.20950, -54.343
197.20691, -54.388
197.20431, -53.534
197.20172, -53.781
197.19912, -53.708
197.19653, -53.986
197.19393, -53.598
197.19134, -54.474
197.18875, -53.591
197.18615, -53.951
197.18356, -53.693
197.18096, -53.637
197.17837, -53.980
197.17578, -53.802
197.17318, -53.208
197.17059, -53.762
197.16800, -53.561
197.16540, -53.405
197.16281, -53.542
197.16022, -53.535
197.15762, -53.573
197.15503, -53.202
197.15244, -53.758
197.14984, -53.285
197.14726, -53.297
197.14467, -53.651
197.14208, -53.133
197.13948, -53.710
197.13689, -53.174
197.13430, -53.568
197.13171, -53.162
197.12911, -52.671
197.12652, -53.020
197.12393, -53.315
197.12134, -53.262
197.11874, -53.140
197.11615, -53.029
197.11356, -52.954
197.11097, -53.111
197.10838, -53.227
197.10578, -53.198
197.10319, -53.055
197.10060, -53.176
197.09801, -53.264
197.09542, -52.662
197.09283, -52.846
197.09023, -53.476
197.08764, -53.451
197.08505, -52.993
197.08247, -52.550
197.07988, -52.761
197.07729, -53.147
197.07470, -52.782
197.07211, -52.591
197.06952, -52.586
197.06693, -52.781
197.06434, -52.968
197.06175, -52.507
197.05916, -52.466
197.05656, -52.441
197.05397, -52.602
197.05138, -53.142
197.04879, -52.365
197.04620, -52.403
197.04361, -52.350
197.04102, -52.477
197.03843, -52.317
197.03584, -52.423
197.03325, -52.312
197.03066, -52.418
197.02807, -52.679
197.02548, -52.403
197.02289, -52.054
197.02030, -52.196
197.01771, -52.294
197.01514, -52.059
197.01255, -51.914
197.00996, -52.210
197.00737, -52.055
197.00478, -51.694
197.00219, -51.689
196.99960, -51.715
196.99701, -51.612
196.99442, -51.794
196.99184, -51.760
196.98925, -51.630
196.98666, -51.474
196.98407, -52.128
196.98148, -51.745
196.97889, -51.707
196.97630, -51.271
196.97372, -51.601
196.97113, -51.405
196.96854, -51.321
196.96595, -51.499
196.96336, -51.463
196.96077, -51.129
196.95819, -51.235
196.95560, -51.133
196.95301, -51.115
196.95044, -51.057
196.94785, -51.089
196.94526, -51.191
196.94267, -51.133
196.94009, -51.100
196.93750, -51.107
196.93491, -50.732
196.93232, -50.856
196.92974, -50.994
196.92715, -50.715
196.92456, -50.592
196.92197, -50.615
196.91939, -50.663
196.91680, -50.795
196.91421, -50.494
196.91163, -50.420
196.90904, -50.323
196.90645, -50.395
196.90387, -50.535
196.90128, -50.510
196.89869, -50.522
196.89611, -50.172
196.89352, -50.393
196.89094, -50.377
196.88835, -50.140
196.88576, -50.044
196.88319, -50.135
196.88060, -50.072
196.87802, -50.190
196.87543, -49.861
196.87285, -49.771
196.87026, -49.859
196.86768, -49.771
196.86509, -49.702
196.86250, -50.011
196.85992, -49.773
196.85733, -49.808
196.85475, -49.861
196.85216, -49.853
196.84958, -49.524
196.84699, -49.905
196.84441, -49.617
196.84182, -49.526
196.83924, -49.481
196.83665, -49.567
196.83407, -49.472
196.83148, -49.398
196.82890, -49.316
196.82631, -49.364
196.82373, -49.328
196.82115, -49.274
196.81856, -49.274
196.81599, -49.236
196.81341, -49.149
196.81082, -49.160
196.80824, -49.035
196.80565, -48.949
196.80307, -49.094
196.80049, -49.139
196.79790, -49.026
196.79532, -49.018
196.79273, -48.781
196.79015, -48.741
196.78757, -48.942
196.78498, -48.918
196.78240, -48.817
196.77982, -48.875
196.77723, -48.767
196.77465, -48.742
196.77207, -48.710
196.76948, -48.781
196.76690, -48.618
196.76432, -48.534
196.76174, -48.548
196.75915, -48.488
196.75657, -48.544
196.75399, -48.550
196.75142, -48.393
196.74884, -48.554
196.74625, -48.518
196.74367, -48.451
196.74109, -48.454
196.73851, -48.221
196.73592, -48.232
196.73334, -48.247
196.73076, -48.313
196.72818, -48.120
196.72560, -48.050
196.72301, -48.128
196.72043, -48.320
196.71785, -48.102
196.71527, -48.270
196.71269, -48.099
196.71011, -48.122
196.70753, -48.079
196.70494, -48.126
196.70236, -48.061
196.69978, -48.135
196.69720, -47.924
196.69462, -47.928
196.69204, -47.890
196.68946, -47.947
196.68688, -47.850
196.68431, -47.883
196.68173, -47.867
196.67915, -47.820
196.67657, -47.791
196.67399, -47.801
196.67141, -47.721
196.66883, -47.675
196.66624, -47.806
196.66366, -47.947
196.66108, -47.890
196.65850, -47.726
196.65592, -47.512
196.65334, -47.345
196.65076, -47.601
196.64818, -48.048
196.64560, -48.404
196.64302, -48.584
196.64045, -48.665
196.63787, -48.847
196.63529, -48.746
196.63271, -48.540
196.63013, -48.317
196.62755, -47.950
196.62497, -47.818
196.62239, -47.482
196.61982, -47.443
196.61724, -47.561
196.61467, -47.667
196.61209, -47.625
196.60951, -47.770
196.60693, -47.692
196.60435, -47.629
196.60177, -47.798
196.59919, -47.827
196.59661, -47.733
196.59404, -47.674
196.59146, -47.617
196.58888, -47.481
196.58630, -47.465
196.58372, -47.406
196.58114, -47.397
196.57857, -47.300
196.57599, -47.285
196.57341, -47.281
196.57083, -47.262
196.56826, -47.345
196.56568, -47.375
196.56310, -47.492
196.56052, -47.552
196.55795, -47.542
196.55537, -47.504
196.55280, -47.457
196.55023, -47.499
196.54765, -47.411
196.54507, -47.506
196.54249, -47.448
196.53992, -47.454
196.53734, -47.389
196.53476, -47.339
196.53219, -47.428
196.52961, -47.241
196.52703, -47.425
196.52446, -47.362
196.52188, -47.302
196.51930, -47.379
196.51673, -47.292
196.51415, -47.383
196.51157, -47.543
196.50900, -47.399
196.50642, -47.410
196.50385, -47.335
196.50127, -47.484
196.49869, -47.400
196.49612, -47.535
196.49354, -47.412
196.49097, -47.587
196.48840, -48.002
196.48583, -48.979
196.48325, -47.658
196.48068, -42.330
196.47810, -37.137
196.47553, -33.247
196.47295, -30.440
196.47038, -28.294
196.46780, -26.951
196.46523, -26.255
196.46265, -25.898
196.46008, -25.750
196.45750, -25.705
196.45493, -25.701
196.45235, -25.706
196.44978, -25.709
196.44720, -25.712
196.44463, -25.717
196.44205, -25.722
196.43948, -25.726
196.43691, -25.729
196.43433, -25.729
196.43176, -25.731
196.42918, -25.728
196.42661, -25.722
196.42403, -25.720
196.42147, -25.718
196.41890, -25.718
196.41633, -25.718
196.41375, -25.714
196.41118, -25.706
196.40861, -25.699
196.40603, -25.694
196.40346, -25.688
196.40088, -25.685
196.39831, -25.681
196.39574, -25.672
196.39317, -25.664
196.39059, -25.656
196.38802, -25.649
196.38545, -25.643
196.38287, -25.637
196.38030, -25.630
196.37773, -25.625
196.37515, -25.619
196.37258, -25.613
196.37001, -25.607
196.36744, -25.600
196.36486, -25.595
196.36229, -25.592
196.35972, -25.588
196.35715, -25.584
196.35459, -25.580
196.35202, -25.573
196.34944, -25.563
196.34687, -25.554
196.34430, -25.544
196.34173, -25.536
196.33916, -25.527
196.33659, -25.520
196.33401, -25.508
196.33144, -25.495
196.32887, -25.483
196.32630, -25.473
196.32373, -25.463
196.32116, -25.449
196.31859, -25.437
196.31601, -25.424
196.31344, -25.410
196.31087, -25.399
196.30830, -25.385
196.30573, -25.371
196.30316, -25.358
196.30059, -25.342
196.29802, -25.326
196.29545, -25.311
196.29288, -25.295
196.29032, -25.279
196.28775, -25.263
196.28518, -25.247
196.28261, -25.235
196.28004, -25.220
196.27747, -25.206
196.27490, -25.188
196.27233, -25.171
196.26976, -25.155
196.26719, -25.141
196.26462, -25.127
196.26205, -25.110
196.25948, -25.095
196.25691, -25.081
196.25434, -25.067
196.25177, -25.053
196.24920, -25.044
196.24663, -25.036
196.24406, -25.028
196.24149, -25.021
196.23892, -25.014
196.23636, -25.007
196.23379, -24.995
196.23122, -24.988
196.22865, -24.982
196.22608, -24.979
196.22352, -24.976
196.22096, -24.973
196.21839, -24.970
196.21582, -24.968
196.21325, -24.966
196.21068, -24.967
196.20811, -24.967
196.20554, -24.969
196.20298, -24.967
196.20041, -24.966
196.19784, -24.966
196.19527, -24.969
196.19270, -24.970
196.19014, -24.975
196.18757, -24.979
196.18500, -24.984
196.18243, -24.985
196.17987, -24.989
196.17730, -24.992
196.17473, -24.996
196.17216, -25.001
196.16960, -25.008
196.16703, -25.016
196.16446, -25.021
196.16189, -25.029
196.15934, -25.034
196.15677, -25.038
196.15421, -25.045
196.15164, -25.056
196.14907, -25.067
196.14651, -25.077
196.14394, -25.086
196.14137, -25.093
196.13881, -25.099
196.13624, -25.111
196.13367, -25.121
196.13111, -25.132
196.12854, -25.144
196.12597, -25.154
196.12341, -25.167
196.12084, -25.176
196.11828, -25.182
196.11571, -25.190
196.11315, -25.197
196.11058, -25.202
196.10801, -25.210
196.10545, -25.215
196.10288, -25.216
196.10032, -25.215
196.09775, -25.216
196.09519, -25.216
196.09263, -25.214
196.09007, -25.215
196.08750, -25.210
196.08494, -25.202
196.08237, -25.196
196.07981, -25.189
196.07724, -25.180
196.07468, -25.176
196.07211, -25.170
196.06955, -25.165
196.06698, -25.159
196.06442, -25.153
196.06186, -25.149
196.05929, -25.143
196.05673, -25.138
196.05416, -25.136
196.05160, -25.135
196.04903, -25.136
196.04647, -25.138
196.04391, -25.140
196.04134, -25.139
196.03878, -25.137
196.03621, -25.138
196.03365, -25.145
196.03109, -25.149
196.02854, -25.155
196.02597, -25.161
196.02341, -25.165
196.02085, -25.169
196.01828, -25.175
196.01572, -25.184
196.01316, -25.193
196.01059, -25.203
196.00803, -25.214
196.00547, -25.222
196.00290, -25.228
196.00034, -25.234
195.99778, -25.241
195.99521, -25.249
195.99265, -25.259
195.99009, -25.267
195.98753, -25.281
195.98496, -25.287
195.98240, -25.292
195.97984, -25.295
195.97728, -25.301
195.97472, -25.309
195.97215, -25.316
195.96959, -25.321
195.96703, -25.325
195.96447, -25.327
195.96192, -25.329
195.95936, -25.334
195.95679, -25.340
195.95423, -25.346
195.95167, -25.348
195.94911, -25.348
195.94655, -25.347
195.94399, -25.345
195.94143, -25.341
195.93886, -25.341
195.93630, -25.341
195.93374, -25.344
195.93118, -25.342
195.92862, -25.337
195.92606, -25.334
195.92350, -25.330
195.92094, -25.322
195.91838, -25.318
195.91582, -25.315
195.91326, -25.311
195.91069, -25.308
195.90813, -25.305
195.90557, -25.301
195.90301, -25.298
195.90045, -25.294
195.89789, -25.294
195.89535, -25.294
195.89279, -25.295
195.89023, -25.297
195.88767, -25.297
195.88511, -25.300
195.88255, -25.297
195.87999, -25.300
195.87743, -25.303
195.87487, -25.309
195.87231, -25.313
195.86975, -25.319
195.86719, -25.322
195.86463, -25.324
195.86207, -25.328
195.85951, -25.333
195.85695, -25.341
195.85439, -25.345
195.85183, -25.350
195.84927, -25.351
195.84672, -25.352
195.84416, -25.356
195.84160, -25.359
195.83904, -25.362
195.83648, -25.361
195.83392, -25.360
195.83138, -25.358
195.82882, -25.357
195.82626, -25.354
195.82370, -25.350
195.82114, -25.347
195.81859, -25.345
195.81603, -25.339
195.81347, -25.333
195.81091, -25.328
195.80835, -25.321
195.80580, -25.318
195.80324, -25.310
195.80068, -25.304
195.79812, -25.303
195.79557, -25.300
195.79301, -25.294
195.79045, -25.292
195.78789, -25.288
195.78534, -25.286
195.78278, -25.286
195.78022, -25.288
195.77766, -25.290
195.77511, -25.294
195.77255, -25.297
195.76999, -25.301
195.76744, -25.305
195.76489, -25.312
195.76234, -25.319
195.75978, -25.330
195.75722, -25.338
195.75467, -25.347
195.75211, -25.357
195.74955, -25.366
195.74700, -25.372
195.74444, -25.379
195.74189, -25.386
195.73933, -25.393
195.73677, -25.399
195.73422, -25.400
195.73166, -25.401
195.72911, -25.397
195.72655, -25.397
195.72399, -25.394
195.72144, -25.392
195.71888, -25.385
195.71633, -25.380
195.71377, -25.375
195.71122, -25.367
195.70866, -25.361
195.70611, -25.352
195.70355, -25.345
195.70101, -25.336
195.69845, -25.330
195.69590, -25.323
195.69334, -25.318
195.69079, -25.313
195.68823, -25.308
195.68568, -25.307
195.68313, -25.308
195.68057, -25.314
195.67802, -25.319
195.67546, -25.325
195.67291, -25.327
195.67035, -25.332
195.66780, -25.336
195.66525, -25.343
195.66269, -25.354
195.66014, -25.360
195.65758, -25.368
195.65503, -25.375
195.65248, -25.384
195.64992, -25.395
195.64737, -25.406
195.64481, -25.420
195.64226, -25.433
195.63971, -25.444
195.63715, -25.453
195.63461, -25.462
195.63206, -25.467
195.62951, -25.477
195.62695, -25.486
195.62440, -25.492
195.62185, -25.499
195.61930, -25.504
195.61674, -25.507
195.61419, -25.516
195.61164, -25.520
195.60908, -25.527
195.60653, -25.532
195.60398, -25.536
195.60143, -25.541
195.59887, -25.540
195.59632, -25.539
195.59377, -25.537
195.59122, -25.536
195.58867, -25.540
195.58611, -25.543
195.58356, -25.547
195.58101, -25.553
195.57846, -25.557
195.57591, -25.560
195.57335, -25.566
195.57081, -25.573
195.56826, -25.578
195.56571, -25.584
195.56316, -25.590
195.56061, -25.593
195.55806, -25.596
195.55551, -25.599
195.55296, -25.601
195.55040, -25.606
195.54785, -25.614
195.54530, -25.618
195.54275, -25.624
195.54020, -25.627
195.53765, -25.629
195.53510, -25.634
195.53255, -25.640
195.53000, -25.642
195.52745, -25.641
195.52490, -25.640
195.52235, -25.641
195.51980, -25.645
195.51725, -25.648
195.51470, -25.648
195.51215, -25.651
195.50960, -25.650
195.50705, -25.652
195.50451, -25.650
195.50196, -25.650
195.49941, -25.646
195.49686, -25.640
195.49431, -25.630
195.49176, -25.620
195.48921, -25.611
195.48666, -25.600
195.48411, -25.587
195.48156, -25.573
195.47901, -25.559
195.47646, -25.542
195.47391, -25.532
195.47136, -25.522
195.46882, -25.512
195.46627, -25.498
195.46372, -25.485
195.46117, -25.469
195.45862, -25.448
195.45607, -25.433
195.45352, -25.420
195.45097, -25.408
195.44843, -25.402
195.44588, -25.398
195.44333, -25.394
195.44078, -25.387
195.43825, -25.383
195.43570, -25.381
195.43315, -25.386
195.43060, -25.391
195.42805, -25.402
195.42551, -25.414
195.42296, -25.425
195.42041, -25.437
195.41786, -25.448
195.41531, -25.463
195.41277, -25.481
195.41022, -25.500
195.40767, -25.517
195.40513, -25.538
195.40258, -25.554
195.40003, -25.571
195.39748, -25.590
195.39494, -25.615
195.39239, -25.633
195.38984, -25.656
195.38730, -25.674
195.38475, -25.687
195.38220, -25.697
195.37966, -25.702
195.37711, -25.709
195.37458, -25.720
195.37203, -25.728
195.36948, -25.732
195.36694, -25.734
195.36439, -25.728
195.36184, -25.721
195.35930, -25.716
195.35675, -25.711
195.35421, -25.705
195.35166, -25.696
195.34911, -25.683
195.34657, -25.670
195.34402, -25.655
195.34148, -25.644
195.33893, -25.637
195.33638, -25.630
195.33384, -25.623
195.33129, -25.615
195.32875, -25.606
195.32620, -25.599
195.32366, -25.592
195.32111, -25.586
195.31857, -25.579
195.31602, -25.573
195.31348, -25.571
195.31093, -25.570
195.30840, -25.572
195.30586, -25.573
195.30331, -25.580
195.30077, -25.582
195.29822, -25.588
195.29568, -25.592
195.29313, -25.602
195.29059, -25.612
195.28804, -25.622
195.28550, -25.629
195.28296, -25.633
195.28041, -25.637
195.27787, -25.642
195.27532, -25.649
195.27278, -25.656
195.27024, -25.667
195.26769, -25.673
195.26515, -25.678
195.26261, -25.682
195.26006, -25.683
195.25752, -25.684
195.25498, -25.684
195.25243, -25.684
195.24989, -25.684
195.24735, -25.685
195.24481, -25.688
195.24227, -25.689
195.23973, -25.688
195.23719, -25.688
195.23464, -25.687
195.23210, -25.683
195.22956, -25.679
195.22701, -25.673
195.22447, -25.669
195.22193, -25.660
195.21939, -25.650
195.21684, -25.641
195.21430, -25.636
195.21176, -25.630
195.20922, -25.621
195.20668, -25.610
195.20413, -25.596
195.20159, -25.583
195.19905, -25.570
195.19651, -25.562
195.19397, -25.554
195.19142, -25.545
195.18888, -25.530
195.18634, -25.514
195.18380, -25.498
195.18126, -25.482
195.17873, -25.469
195.17619, -25.464
195.17365, -25.463
195.17110, -25.462
195.16856, -25.463
195.16602, -25.461
195.16348, -25.464
195.16094, -25.465
195.15840, -25.468
195.15586, -25.471
195.15332, -25.476
195.15078, -25.479
195.14824, -25.485
195.14570, -25.494
195.14316, -25.505
195.14061, -25.521
195.13807, -25.538
195.13553, -25.556
195.13299, -25.573
195.13045, -25.584
195.12791, -25.592
195.12537, -25.600
195.12283, -25.611
195.12029, -25.624
195.11775, -25.638
195.11523, -25.650
195.11269, -25.659
195.11015, -25.662
195.10761, -25.661
195.10507, -25.661
195.10253, -25.659
195.09999, -25.658
195.09745, -25.654
195.09491, -25.646
195.09237, -25.634
195.08983, -25.621
195.08729, -25.610
195.08475, -25.602
195.08222, -25.594
195.07968, -25.584
195.07714, -25.571
195.07460, -25.558
195.07206, -25.546
195.06952, -25.536
195.06698, -25.526
195.06444, -25.519
195.06191, -25.511
195.05937, -25.504
195.05683, -25.496
195.05429, -25.486
195.05175, -25.477
195.04923, -25.472
195.04669, -25.468
195.04415, -25.465
195.04161, -25.463
195.03908, -25.463
195.03654, -25.461
195.03400, -25.462
195.03146, -25.463
195.02893, -25.465
195.02639, -25.464
195.02385, -25.465
195.02131, -25.460
195.01878, -25.454
195.01624, -25.448
195.01370, -25.441
195.01116, -25.434
195.00863, -25.425
195.00609, -25.414
195.00355, -25.398
195.00102, -25.382
194.99848, -25.363
194.99594, -25.345
194.99341, -25.323
194.99087, -25.304
194.98833, -25.288
194.98581, -25.274
194.98327, -25.262
194.98074, -25.246
194.97820, -25.230
194.97567, -25.219
194.97313, -25.207
194.97059, -25.195
194.96806, -25.181
194.96552, -25.169
194.96299, -25.155
194.96045, -25.145
194.95791, -25.138
194.95538, -25.127
194.95284, -25.115
194.95031, -25.105
194.94777, -25.093
194.94524, -25.087
194.94270, -25.082
194.94017, -25.079
194.93763, -25.073
194.93510, -25.063
194.93256, -25.052
194.93003, -25.041
194.92749, -25.033
194.92496, -25.031
194.92242, -25.030
194.91990, -25.030
194.91736, -25.025
194.91483, -25.020
194.91230, -25.009
194.90976, -25.000
194.90723, -24.991
194.90469, -24.985
194.90216, -24.977
194.89962, -24.964
194.89709, -24.944
194.89456, -24.924
194.89202, -24.909
194.88949, -24.896
194.88695, -24.886
194.88442, -24.874
194.88189, -24.861
194.87935, -24.845
194.87682, -24.831
194.87429, -24.813
194.87175, -24.801
194.86922, -24.788
194.86669, -24.779
194.86415, -24.766
194.86162, -24.756
194.85909, -24.747
194.85655, -24.737
194.85403, -24.726
194.85150, -24.713
194.84897, -24.700
194.84643, -24.687
194.84390, -24.675
194.84137, -24.666
194.83884, -24.661
194.83630, -24.654
194.83377, -24.647
194.83124, -24.639
194.82871, -24.635
194.82617, -24.632
194.82364, -24.629
194.82111, -24.624
194.81858, -24.615
194.81605, -24.608
194.81351, -24.601
194.81098, -24.595
194.80845, -24.588
194.80592, -24.584
194.80339, -24.575
194.80086, -24.566
194.79832, -24.560
194.79579, -24.555
194.79326, -24.558
194.79074, -24.563
194.78821, -24.566
194.78568, -24.565
194.78315, -24.564
194.78062, -24.561
194.77809, -24.557
194.77556, -24.552
194.77302, -24.548
194.77049, -24.544
194.76796, -24.539
194.76543, -24.532
194.76290, -24.523
194.76037, -24.519
194.75784, -24.515
194.75531, -24.510
194.75278, -24.503
194.75025, -24.493
194.74772, -24.477
194.74519, -24.458
194.74266, -24.437
194.74013, -24.418
194.73760, -24.398
194.73507, -24.376
194.73254, -24.352
194.73001, -24.327
194.72748, -24.306
194.72496, -24.287
194.72243, -24.268
194.71990, -24.250
194.71737, -24.234
194.71485, -24.219
194.71232, -24.204
194.70979, -24.187
194.70726, -24.178
194.70473, -24.166
194.70220, -24.152
194.69967, -24.131
194.69714, -24.110
194.69461, -24.092
194.69208, -24.078
194.68955, -24.064
194.68703, -24.053
194.68450, -24.043
194.68197, -24.030
194.67944, -24.017
194.67691, -24.002
194.67438, -23.990
194.67186, -23.980
194.66933, -23.972
194.66680, -23.968
194.66427, -23.962
194.66176, -23.954
194.65923, -23.946
194.65670, -23.934
194.65417, -23.924
194.65164, -23.914
194.64912, -23.908
194.64659, -23.905
194.64406, -23.901
194.64153, -23.893
194.63901, -23.882
194.63648, -23.874
194.63395, -23.867
194.63143, -23.860
194.62890, -23.853
194.62637, -23.845
194.62384, -23.839
194.62132, -23.836
194.61879, -23.838
194.61626, -23.844
194.61374, -23.848
194.61121, -23.849
194.60868, -23.848
194.60616, -23.844
194.60363, -23.841
194.60110, -23.841
194.59858, -23.846
194.59606, -23.851
194.59354, -23.856
194.59101, -23.856
194.58849, -23.854
194.58596, -23.851
194.58343, -23.847
194.58091, -23.849
194.57838, -23.848
194.57586, -23.851
194.57333, -23.855
194.57080, -23.862
194.56828, -23.864
194.56575, -23.863
194.56323, -23.860
194.56070, -23.857
194.55818, -23.854
194.55565, -23.850
194.55313, -23.844
194.55060, -23.839
194.54808, -23.829
194.54555, -23.816
194.54303, -23.806
194.54050, -23.798
194.53798, -23.788
194.53545, -23.777
194.53294, -23.766
194.53042, -23.758
194.52789, -23.749
194.52537, -23.744
194.52284, -23.743
194.52032, -23.745
194.51779, -23.746
194.51527, -23.751
194.51275, -23.752
194.51022, -23.752
194.50770, -23.750
194.50517, -23.750
194.50265, -23.750
194.50013, -23.749
194.49760, -23.746
194.49508, -23.740
194.49255, -23.733
194.49003, -23.729
194.48751, -23.730
194.48498, -23.734
194.48246, -23.738
194.47994, -23.736
194.47741, -23.732
194.47489, -23.723
194.47237, -23.715
194.46985, -23.710
194.46734, -23.705
194.46481, -23.700
194.46229, -23.691
194.45977, -23.678
194.45724, -23.668
194.45472, -23.659
194.45220, -23.652
194.44968, -23.647
194.44715, -23.640
194.44463, -23.632
194.44211, -23.622
194.43959, -23.611
194.43706, -23.601
194.43454, -23.593
194.43202, -23.585
194.42950, -23.579
194.42698, -23.574
194.42446, -23.569
194.42193, -23.563
194.41941, -23.559
194.41689, -23.557
194.41437, -23.555
194.41185, -23.550
194.40933, -23.543
194.40680, -23.536
194.40428, -23.531
194.40177, -23.529
194.39925, -23.531
194.39673, -23.539
194.39421, -23.547
194.39169, -23.552
194.38917, -23.556
194.38665, -23.555
194.38413, -23.554
194.38161, -23.554
194.37909, -23.557
194.37657, -23.556
194.37404, -23.556
194.37152, -23.553
194.36900, -23.547
194.36648, -23.542
194.36396, -23.536
194.36144, -23.537
194.35892, -23.542
194.35640, -23.553
194.35388, -23.561
194.35136, -23.567
194.34884, -23.570
194.34632, -23.573
194.34380, -23.578
194.34128, -23.585
194.33878, -23.600
194.33626, -23.609
194.33374, -23.616
194.33122, -23.620
194.32870, -23.621
194.32618, -23.627
194.32366, -23.637
194.32114, -23.649
194.31862, -23.659
194.31610, -23.660
194.31358, -23.663
194.31107, -23.662
194.30855, -23.665
194.30603, -23.668
194.30351, -23.671
194.30099, -23.673
194.29847, -23.672
194.29595, -23.665
194.29343, -23.659
194.29092, -23.648
194.28840, -23.636
194.28588, -23.627
194.28336, -23.622
194.28084, -23.620
194.27833, -23.619
194.27581, -23.615
194.27330, -23.616
194.27078, -23.616
194.26827, -23.619
194.26575, -23.623
194.26323, -23.624
194.26071, -23.618
194.25820, -23.613
194.25568, -23.609
194.25316, -23.607
194.25064, -23.609
194.24813, -23.615
194.24561, -23.616
194.24309, -23.615
194.24058, -23.611
194.23806, -23.606
194.23554, -23.601
194.23302, -23.600
194.23051, -23.599
194.22799, -23.600
194.22547, -23.599
194.22296, -23.596
194.22044, -23.593
194.21792, -23.593
194.21541, -23.598
194.21289, -23.606
194.21039, -23.614
194.20787, -23.619
194.20536, -23.615
194.20284, -23.611
194.20032, -23.605
194.19781, -23.596
194.19529, -23.593
194.19278, -23.591
194.19026, -23.588
194.18774, -23.583
194.18523, -23.578
194.18271, -23.573
194.18020, -23.571
194.17768, -23.569
194.17517, -23.571
194.17265, -23.569
194.17014, -23.563
194.16762, -23.555
194.16511, -23.545
194.16259, -23.535
194.16008, -23.526
194.15756, -23.515
194.15505, -23.501
194.15253, -23.482
194.15002, -23.467
194.14750, -23.456
194.14500, -23.445
194.14249, -23.436
194.13997, -23.423
194.13746, -23.410
194.13494, -23.393
194.13243, -23.376
194.12991, -23.363
194.12740, -23.355
194.12489, -23.351
194.12237, -23.349
194.11986, -23.345
194.11734, -23.339
194.11483, -23.330
194.11232, -23.324
194.10980, -23.318
194.10729, -23.319
194.10478, -23.322
194.10226, -23.327
194.09975, -23.332
194.09724, -23.337
194.09472, -23.338
194.09221, -23.338
194.08970, -23.341
194.08718, -23.347
194.08467, -23.353
194.08217, -23.356
194.07966, -23.356
194.07714, -23.353
194.07463, -23.353
194.07212, -23.359
194.06961, -23.372
194.06709, -23.386
194.06458, -23.401
194.06207, -23.411
194.05956, -23.416
194.05704, -23.419
194.05453, -23.425
194.05202, -23.435
194.04951, -23.445
194.04699, -23.452
194.04448, -23.451
194.04197, -23.444
194.03946, -23.433
194.03695, -23.425
194.03444, -23.423
194.03192, -23.425
194.02941, -23.425
194.02690, -23.418
194.02439, -23.402
194.02188, -23.388
194.01937, -23.370
194.01687, -23.359
194.01436, -23.352
194.01185, -23.343
194.00933, -23.325
194.00682, -23.301
194.00431, -23.280
194.00180, -23.261
193.99929, -23.245
193.99678, -23.234
193.99427, -23.228
193.99176, -23.220
193.98925, -23.210
193.98674, -23.196
193.98423, -23.185
193.98172, -23.173
193.97921, -23.158
193.97670, -23.142
193.97419, -23.126
193.97168, -23.107
193.96917, -23.083
193.96666, -23.062
193.96415, -23.044
193.96164, -23.026
193.95913, -23.010
193.95662, -22.997
193.95411, -22.983
193.95161, -22.965
193.94910, -22.945
193.94659, -22.928
193.94408, -22.913
193.94157, -22.901
193.93906, -22.893
193.93655, -22.884
193.93404, -22.871
193.93154, -22.858
193.92903, -22.847
193.92652, -22.844
193.92401, -22.846
193.92150, -22.846
193.91899, -22.841
193.91648, -22.831
193.91397, -22.817
193.91147, -22.810
193.90896, -22.810
193.90645, -22.818
193.90394, -22.830
193.90143, -22.837
193.89892, -22.837
193.89642, -22.835
193.89391, -22.835
193.89140, -22.839
193.88890, -22.854
193.88640, -22.868
193.88389, -22.876
193.88138, -22.878
193.87887, -22.868
193.87637, -22.855
193.87386, -22.844
193.87135, -22.838
193.86884, -22.838
193.86634, -22.836
193.86383, -22.832
193.86132, -22.825
193.85881, -22.818
193.85631, -22.814
193.85380, -22.815
193.85129, -22.820
193.84879, -22.822
193.84628, -22.818
193.84377, -22.802
193.84126, -22.784
193.83876, -22.767
193.83625, -22.753
193.83375, -22.745
193.83124, -22.740
193.82873, -22.737
193.82623, -22.732
193.82373, -22.724
193.82123, -22.716
193.81872, -22.709
193.81621, -22.704
193.81371, -22.698
193.81120, -22.693
193.80870, -22.681
193.80619, -22.663
193.80368, -22.653
193.80118, -22.648
193.79867, -22.653
193.79617, -22.661
193.79366, -22.668
193.79116, -22.672
193.78865, -22.670
193.78615, -22.662
193.78364, -22.656
193.78114, -22.657
193.77863, -22.664
193.77613, -22.674
193.77362, -22.680
193.77112, -22.681
193.76861, -22.675
193.76611, -22.671
193.76360, -22.671
193.76111, -22.677
193.75860, -22.686
193.75610, -22.693
193.75360, -22.699
193.75109, -22.694
193.74859, -22.683
193.74608, -22.669
193.74358, -22.657
193.74107, -22.648
193.73857, -22.638
193.73607, -22.622
193.73356, -22.600
193.73106, -22.578
193.72855, -22.555
193.72605, -22.537
193.72355, -22.530
193.72104, -22.527
193.71854, -22.518
193.71604, -22.502
193.71353, -22.480
193.71103, -22.454
193.70853, -22.428
193.70602, -22.405
193.70352, -22.384
193.70102, -22.358
193.69851, -22.329
193.69602, -22.302
193.69352, -22.276
193.69102, -22.256
193.68851, -22.244
193.68601, -22.236
193.68351, -22.228
193.68101, -22.212
193.67850, -22.195
193.67600, -22.172
193.67350, -22.149
193.67100, -22.131
193.66849, -22.118
193.66599, -22.108
193.66349, -22.101
193.66099, -22.096
193.65849, -22.091
193.65598, -22.093
193.65348, -22.101
193.65098, -22.112
193.64848, -22.123
193.64598, -22.129
193.64348, -22.131
193.64097, -22.129
193.63847, -22.130
193.63597, -22.132
193.63348, -22.138
193.63098, -22.149
193.62848, -22.159
193.62598, -22.167
193.62348, -22.173
193.62098, -22.180
193.61848, -22.192
193.61597, -22.208
193.61347, -22.223
193.61097, -22.234
193.60847, -22.240
193.60597, -22.241
193.60347, -22.240
193.60097, -22.240
193.59847, -22.246
193.59597, -22.253
193.59347, -22.259
193.59097, -22.259
193.58847, -22.256
193.58597, -22.252
193.58347, -22.249
193.58097, -22.251
193.57847, -22.255
193.57597, -22.255
193.57347, -22.250
193.57097, -22.241
193.56848, -22.226
193.56598, -22.211
193.56348, -22.203
193.56098, -22.203
193.55848, -22.206
193.55598, -22.205
193.55349, -22.200
193.55099, -22.187
193.54849, -22.176
193.54599, -22.171
193.54349, -22.169
193.54099, -22.170
193.53849, -22.166
193.53599, -22.156
193.53349, -22.141
193.53099, -22.128
193.52850, -22.122
193.52600, -22.120
193.52350, -22.127
193.52100, -22.135
193.51850, -22.142
193.51600, -22.144
193.51351, -22.146
193.51101, -22.148
193.50851, -22.151
193.50602, -22.158
193.50353, -22.166
193.50103, -22.172
193.49853, -22.173
193.49603, -22.168
193.49353, -22.161
193.49104, -22.155
193.48854, -22.154
193.48604, -22.160
193.48354, -22.172
193.48105, -22.183
193.47855, -22.187
193.47605, -22.186
193.47355, -22.189
193.47106, -22.196
193.46856, -22.206
193.46606, -22.214
193.46357, -22.212
193.46107, -22.201
193.45857, -22.184
193.45608, -22.172
193.45358, -22.167
193.45108, -22.169
193.44859, -22.174
193.44609, -22.172
193.44359, -22.161
193.44111, -22.145
193.43861, -22.132
193.43612, -22.126
193.43362, -22.123
193.43112, -22.119
193.42863, -22.111
193.42613, -22.099
193.42364, -22.082
193.42114, -22.066
193.41864, -22.055
193.41615, -22.054
193.41365, -22.058
193.41116, -22.060
193.40866, -22.058
193.40617, -22.054
193.40367, -22.044
193.40118, -22.034
193.39868, -22.029
193.39619, -22.028
193.39369, -22.028
193.39119, -22.027
193.38870, -22.025
193.38620, -22.022
193.38371, -22.020
193.38121, -22.023
193.37872, -22.034
193.37624, -22.049
193.37374, -22.063
193.37125, -22.076
193.36875, -22.082
193.36626, -22.086
193.36377, -22.088
193.36127, -22.092
193.35878, -22.098
193.35628, -22.103
193.35379, -22.106
193.35129, -22.112
193.34880, -22.121
193.34631, -22.132
193.34381, -22.147
193.34132, -22.164
193.33882, -22.177
193.33633, -22.185
193.33384, -22.184
193.33134, -22.174
193.32885, -22.164
193.32636, -22.158
193.32386, -22.159
193.32137, -22.168
193.31888, -22.176
193.31638, -22.180
193.31390, -22.179
193.31141, -22.176
193.30892, -22.174
193.30642, -22.177
193.30393, -22.180
193.30144, -22.180
193.29895, -22.167
193.29645, -22.147
193.29396, -22.128
193.29147, -22.116
193.28898, -22.115
193.28648, -22.121
193.28399, -22.126
193.28150, -22.125
193.27901, -22.112
193.27651, -22.094
193.27402, -22.077
193.27153, -22.065
193.26904, -22.060
193.26655, -22.055
193.26405, -22.047
193.26156, -22.033
193.25907, -22.012
193.25658, -21.993
193.25409, -21.980
193.25160, -21.975
193.24912, -21.977
193.24663, -21.977
193.24413, -21.974
193.24164, -21.963
193.23915, -21.946
193.23666, -21.933
193.23417, -21.927
193.23168, -21.926
193.22919, -21.926
193.22670, -21.917
193.22421, -21.906
193.22172, -21.890
193.21923, -21.877
193.21673, -21.874
193.21424, -21.880
193.21175, -21.889
193.20926, -21.897
193.20677, -21.898
193.20428, -21.892
193.20179, -21.884
193.19930, -21.883
193.19681, -21.889
193.19432, -21.897
193.19183, -21.902
193.18934, -21.900
193.18687, -21.893
193.18438, -21.886
193.18189, -21.878
193.17940, -21.878
193.17691, -21.881
193.17442, -21.888
193.17193, -21.888
193.16944, -21.883
193.16695, -21.876
193.16446, -21.872
193.16197, -21.872
193.15948, -21.879
193.15699, -21.885
193.15450, -21.888
193.15201, -21.880
193.14953, -21.868
193.14704, -21.859
193.14455, -21.858
193.14206, -21.869
193.13957, -21.889
193.13708, -21.903
193.13459, -21.913
193.13210, -21.913
193.12962, -21.914
193.12713, -21.919
193.12464, -21.930
193.12216, -21.946
193.11968, -21.964
193.11719, -21.979
193.11470, -21.983
193.11221, -21.983
193.10972, -21.984
193.10724, -21.991
193.10475, -22.002
193.10226, -22.017
193.09977, -22.037
193.09729, -22.054
193.09480, -22.064
193.09231, -22.073
193.08982, -22.087
193.08734, -22.110
193.08485, -22.129
193.08236, -22.149
193.07988, -22.160
193.07739, -22.165
193.07490, -22.171
193.07241, -22.182
193.06993, -22.202
193.06744, -22.229
193.06495, -22.254
193.06247, -22.269
193.05999, -22.273
193.05751, -22.265
193.05502, -22.257
193.05253, -22.258
193.05005, -22.266
193.04756, -22.274
193.04508, -22.275
193.04259, -22.268
193.04010, -22.254
193.03762, -22.238
193.03513, -22.227
193.03265, -22.225
193.03016, -22.227
193.02767, -22.225
193.02519, -22.208
193.02270, -22.179
193.02022, -22.149
193.01773, -22.123
193.01525, -22.105
193.01276, -22.094
193.01028, -22.084
193.00779, -22.062
193.00531, -22.032
193.00282, -22.002
193.00034, -21.975
192.99785, -21.959
192.99538, -21.954
192.99289, -21.951
192.99041, -21.939
192.98792, -21.915
192.98544, -21.884
192.98295, -21.856
192.98047, -21.839
192.97799, -21.831
192.97550, -21.828
192.97302, -21.823
192.97053, -21.811
192.96805, -21.794
192.96556, -21.778
192.96308, -21.773
192.96060, -21.781
192.95811, -21.793
192.95563, -21.805
192.95314, -21.809
192.95066, -21.802
192.94818, -21.789
192.94569, -21.781
192.94321, -21.782
192.94073, -21.796
192.93824, -21.817
192.93576, -21.838
192.93328, -21.848
192.93081, -21.851
192.92832, -21.852
192.92584, -21.865
192.92336, -21.892
192.92087, -21.921
192.91839, -21.949
192.91591, -21.968
192.91342, -21.973
192.91094, -21.972
192.90846, -21.978
192.90598, -21.994
192.90349, -22.025
192.90101, -22.055
192.89853, -22.075
192.89605, -22.082
192.89356, -22.081
192.89108, -22.080
192.88860, -22.085
192.88612, -22.102
192.88364, -22.123
192.88115, -22.139
192.87867, -22.144
192.87619, -22.138
192.87371, -22.127
192.87123, -22.125
192.86876, -22.132
192.86628, -22.145
192.86379, -22.154
192.86131, -22.154
192.85883, -22.148
192.85635, -22.137
192.85387, -22.128
192.85139, -22.126
192.84891, -22.134
192.84643, -22.138
192.84394, -22.136
192.84146, -22.125
192.83898, -22.109
192.83650, -22.094
192.83402, -22.086
192.83154, -22.085
192.82906, -22.090
192.82658, -22.091
192.82410, -22.082
192.82162, -22.069
192.81914, -22.056
192.81666, -22.043
192.81418, -22.035
192.81170, -22.033
192.80922, -22.029
192.80674, -22.015
192.80427, -21.992
192.80179, -21.971
192.79931, -21.962
192.79683, -21.965
192.79435, -21.979
192.79187, -21.998
192.78939, -22.013
192.78691, -22.013
192.78443, -22.003
192.78195, -21.994
192.77947, -21.993
192.77699, -21.999
192.77451, -22.009
192.77204, -22.013
192.76956, -22.008
192.76708, -21.990
192.76460, -21.974
192.76212, -21.970
192.75964, -21.978
192.75716, -21.992
192.75468, -22.001
192.75220, -21.998
192.74973, -21.986
192.74725, -21.968
192.74477, -21.959
192.74230, -21.961
192.73983, -21.969
192.73735, -21.970
192.73487, -21.961
192.73239, -21.942
192.72991, -21.915
192.72743, -21.893
192.72496, -21.887
192.72248, -21.893
192.72000, -21.903
192.71752, -21.905
192.71505, -21.899
192.71257, -21.884
192.71009, -21.866
192.70761, -21.856
192.70514, -21.859
192.70266, -21.870
192.70018, -21.876
192.69770, -21.872
192.69523, -21.858
192.69275, -21.845
192.69027, -21.839
192.68779, -21.851
192.68532, -21.877
192.68284, -21.910
192.68036, -21.934
192.67790, -21.942
192.67542, -21.943
192.67295, -21.939
192.67047, -21.945
192.66799, -21.968
192.66552, -22.000
192.66304, -22.031
192.66056, -22.055
192.65809, -22.067
192.65561, -22.080
192.65314, -22.102
192.65066, -22.132
192.64818, -22.174
192.64571, -22.213
192.64323, -22.249
192.64076, -22.267
192.63828, -22.273
192.63581, -22.280
192.63333, -22.290
192.63085, -22.303
192.62838, -22.325
192.62590, -22.347
192.62343, -22.357
192.62095, -22.356
192.61848, -22.353
192.61601, -22.357
192.61354, -22.367
192.61106, -22.380
192.60859, -22.390
192.60611, -22.386
192.60364, -22.369
192.60117, -22.347
192.59869, -22.330
192.59622, -22.326
192.59374, -22.329
192.59127, -22.330
192.58879, -22.324
192.58632, -22.301
192.58384, -22.271
192.58137, -22.240
192.57890, -22.223
192.57642, -22.219
192.57395, -22.217
192.57147, -22.207
192.56900, -22.188
192.56653, -22.153
192.56405, -22.114
192.56158, -22.088
192.55910, -22.074
192.55663, -22.068
192.55416, -22.064
192.55170, -22.056
192.54922, -22.043
192.54675, -22.026
192.54428, -22.012
192.54180, -22.013
192.53933, -22.024
192.53686, -22.032
192.53438, -22.030
192.53191, -22.017
192.52944, -22.001
192.52696, -21.984
192.52449, -21.977
192.52202, -21.983
192.51955, -21.994
192.51707, -22.000
192.51460, -21.996
192.51213, -21.988
192.50966, -21.984
192.50718, -21.985
192.50471, -22.001
192.50224, -22.023
192.49977, -22.046
192.49730, -22.053
192.49482, -22.048
192.49235, -22.036
192.48988, -22.028
192.48742, -22.032
192.48495, -22.049
192.48248, -22.068
192.48000, -22.083
192.47753, -22.084
192.47506, -22.072
192.47259, -22.064
192.47012, -22.063
192.46765, -22.075
192.46518, -22.095
192.46271, -22.115
192.46023, -22.119
192.45776, -22.108
192.45529, -22.096
192.45282, -22.094
192.45035, -22.105
192.44788, -22.130
192.44541, -22.157
192.44294, -22.175
192.44047, -22.176
192.43800, -22.168
192.43553, -22.163
192.43306, -22.173
192.43059, -22.195
192.42811, -22.221
192.42566, -22.238
192.42319, -22.239
192.42072, -22.225
192.41825, -22.215
192.41578, -22.224
192.41331, -22.253
192.41084, -22.295
192.40837, -22.334
192.40590, -22.362
192.40343, -22.379
192.40096, -22.390
192.39849, -22.406
192.39602, -22.435
192.39355, -22.478
192.39108, -22.517
192.38861, -22.543
192.38614, -22.560
192.38367, -22.565
192.38120, -22.571
192.37873, -22.589
192.37627, -22.627
192.37380, -22.671
192.37133, -22.706
192.36886, -22.726
192.36639, -22.732
192.36392, -22.727
192.36147, -22.727
192.35900, -22.740
192.35653, -22.758
192.35406, -22.779
192.35159, -22.787
192.34912, -22.784
192.34665, -22.776
192.34419, -22.772
192.34172, -22.781
192.33925, -22.801
192.33678, -22.824
192.33431, -22.831
192.33185, -22.825
192.32938, -22.803
192.32691, -22.776
192.32444, -22.756
192.32198, -22.746
192.31951, -22.746
192.31704, -22.745
192.31457, -22.734
192.31211, -22.711
192.30964, -22.687
192.30717, -22.674
192.30470, -22.673
192.30224, -22.686
192.29978, -22.700
192.29732, -22.699
192.29485, -22.678
192.29238, -22.650
192.28992, -22.622
192.28745, -22.608
192.28498, -22.610
192.28252, -22.621
192.28005, -22.632
192.27758, -22.630
192.27512, -22.618
192.27265, -22.614
192.27018, -22.628
192.26772, -22.654
192.26525, -22.688
192.26279, -22.717
192.26032, -22.732
192.25785, -22.732
192.25539, -22.727
192.25292, -22.728
192.25046, -22.745
192.24799, -22.773
192.24552, -22.808
192.24306, -22.837
192.24059, -22.854
192.23813, -22.868
192.23568, -22.880
192.23321, -22.909
192.23074, -22.950
192.22828, -22.992
192.22581, -23.032
192.22335, -23.059
192.22088, -23.067
192.21842, -23.065
192.21595, -23.072
192.21349, -23.095
192.21102, -23.135
192.20856, -23.171
192.20610, -23.199
192.20363, -23.213
192.20117, -23.223
192.19870, -23.234
192.19624, -23.259
192.19377, -23.299
192.19131, -23.337
192.18884, -23.365
192.18638, -23.372
192.18392, -23.368
192.18145, -23.363
192.17899, -23.370
192.17653, -23.401
192.17407, -23.444
192.17161, -23.481
192.16915, -23.502
192.16668, -23.504
192.16422, -23.498
192.16176, -23.502
192.15929, -23.518
192.15683, -23.551
192.15437, -23.587
192.15190, -23.601
192.14944, -23.594
192.14698, -23.576
192.14451, -23.560
192.14205, -23.559
192.13959, -23.577
192.13712, -23.611
192.13466, -23.638
192.13220, -23.652
192.12974, -23.647
192.12727, -23.643
192.12481, -23.648
192.12235, -23.666
192.11989, -23.692
192.11742, -23.713
192.11496, -23.719
192.11250, -23.702
192.11005, -23.682
192.10759, -23.668
192.10513, -23.672
192.10266, -23.693
192.10020, -23.721
192.09774, -23.744
192.09528, -23.751
192.09282, -23.743
192.09035, -23.730
192.08789, -23.729
192.08543, -23.743
192.08297, -23.761
192.08051, -23.778
192.07805, -23.782
192.07559, -23.769
192.07312, -23.747
192.07066, -23.736
192.06820, -23.748
192.06574, -23.774
192.06328, -23.801
192.06082, -23.819
192.05836, -23.818
192.05590, -23.804
192.05344, -23.783
192.05098, -23.775
192.04852, -23.788
192.04607, -23.807
192.04361, -23.816
192.04115, -23.810
192.03869, -23.783
192.03623, -23.746
192.03377, -23.719
192.03131, -23.717
192.02885, -23.735
192.02639, -23.761
192.02393, -23.776
192.02147, -23.769
192.01901, -23.749
192.01655, -23.726
192.01409, -23.717
192.01163, -23.729
192.00917, -23.750
192.00671, -23.763
192.00425, -23.759
192.00179, -23.747
191.99933, -23.740
191.99687, -23.740
191.99441, -23.765
191.99195, -23.813
191.98949, -23.863
191.98703, -23.892
191.98459, -23.910
191.98213, -23.918
191.97967, -23.933
191.97721, -23.963
191.97475, -24.004
191.97229, -24.056
191.96984, -24.100
191.96738, -24.126
191.96492, -24.143
191.96246, -24.163
191.96000, -24.196
191.95754, -24.241
191.95509, -24.303
191.95263, -24.365
191.95017, -24.405
191.94771, -24.422
191.94525, -24.423
191.94280, -24.428
191.94034, -24.444
191.93788, -24.474
191.93542, -24.504
191.93296, -24.530
191.93051, -24.532
191.92805, -24.519
191.92559, -24.508
191.92313, -24.508
191.92069, -24.523
191.91823, -24.542
191.91578, -24.557
191.91332, -24.548
191.91086, -24.517
191.90840, -24.471
191.90595, -24.438
191.90349, -24.424
191.90103, -24.422
191.89858, -24.424
191.89612, -24.416
191.89366, -24.389
191.89121, -24.354
191.88875, -24.318
191.88629, -24.298
191.88384, -24.301
191.88138, -24.314
191.87893, -24.317
191.87647, -24.303
191.87401, -24.275
191.87156, -24.235
191.86910, -24.202
191.86665, -24.191
191.86419, -24.197
191.86173, -24.203
191.85929, -24.204
191.85683, -24.192
191.85438, -24.170
191.85192, -24.153
191.84947, -24.154
191.84701, -24.171
191.84456, -24.188
191.84210, -24.196
191.83965, -24.186
191.83719, -24.162
191.83474, -24.138
191.83228, -24.127
191.82983, -24.137
191.82737, -24.163
191.82492, -24.190
191.82246, -24.202
191.82001, -24.202
191.81755, -24.195
191.81510, -24.190
191.81264, -24.201
191.81019, -24.226
191.80773, -24.259
191.80528, -24.283
191.80283, -24.282
191.80037, -24.265
191.79792, -24.250
191.79548, -24.246
191.79302, -24.260
191.79057, -24.288
191.78811, -24.316
191.78566, -24.327
191.78321, -24.322
191.78075, -24.309
191.77830, -24.303
191.77584, -24.309
191.77339, -24.331
191.77094, -24.356
191.76848, -24.371
191.76603, -24.361
191.76358, -24.338
191.76112, -24.316
191.75867, -24.306
191.75622, -24.316
191.75377, -24.340
191.75131, -24.369
191.74886, -24.385
191.74641, -24.380
191.74395, -24.365
191.74150, -24.354
191.73905, -24.359
191.73660, -24.375
191.73416, -24.399
191.73170, -24.410
191.72925, -24.408
191.72680, -24.388
191.72435, -24.377
191.72189, -24.380
191.71944, -24.406
191.71699, -24.444
191.71454, -24.478
191.71209, -24.504
191.70963, -24.515
191.70718, -24.526
191.70473, -24.547
191.70228, -24.583
191.69983, -24.629
191.69738, -24.665
191.69492, -24.689
191.69247, -24.695
191.69002, -24.686
191.68757, -24.674
191.68512, -24.675
191.68267, -24.696
191.68022, -24.718
191.67776, -24.734
191.67531, -24.731
191.67286, -24.710
191.67042, -24.681
191.66797, -24.661
191.66552, -24.658
191.66307, -24.671
191.66062, -24.689
191.65817, -24.692
191.65572, -24.680
191.65327, -24.660
191.65082, -24.643
191.64837, -24.642
191.64592, -24.658
191.64347, -24.686
191.64102, -24.706
191.63857, -24.700
191.63612, -24.682
191.63367, -24.662
191.63122, -24.648
191.62877, -24.651
191.62632, -24.670
191.62387, -24.682
191.62142, -24.682
191.61897, -24.670
191.61652, -24.653
191.61407, -24.646
191.61162, -24.657
191.60918, -24.684
191.60674, -24.715
191.60429, -24.740
191.60184, -24.743
191.59939, -24.729
191.59694, -24.718
191.59449, -24.721
191.59204, -24.740
191.58959, -24.771
191.58714, -24.798
191.58469, -24.808
191.58225, -24.804
191.57980, -24.795
191.57735, -24.798
191.57490, -24.820
191.57245, -24.861
191.57000, -24.904
191.56756, -24.935
191.56511, -24.948
191.56266, -24.945
191.56021, -24.943
191.55776, -24.954
191.55531, -24.988
191.55287, -25.030
191.55042, -25.067
191.54797, -25.097
191.54554, -25.111
191.54309, -25.117
191.54064, -25.132
191.53819, -25.168
191.53575, -25.221
191.53330, -25.266
191.53085, -25.301
191.52840, -25.317
191.52596, -25.316
191.52351, -25.310
191.52106, -25.319
191.51862, -25.347
191.51617, -25.385
191.51372, -25.418
191.51127, -25.435
191.50883, -25.439
191.50638, -25.434
191.50393, -25.432
191.50149, -25.452
191.49904, -25.485
191.49660, -25.517
191.49415, -25.535
191.49170, -25.529
191.48926, -25.507
191.48681, -25.483
191.48436, -25.471
191.48193, -25.480
191.47948, -25.507
191.47704, -25.528
191.47459, -25.535
191.47215, -25.526
191.46970, -25.512
191.46725, -25.503
191.46481, -25.508
191.46236, -25.533
191.45992, -25.562
191.45747, -25.576
191.45503, -25.569
191.45258, -25.546
191.45014, -25.525
191.44769, -25.515
191.44525, -25.526
191.44280, -25.554
191.44036, -25.579
191.43791, -25.584
191.43547, -25.571
191.43302, -25.551
191.43058, -25.546
191.42813, -25.556
191.42569, -25.583
191.42324, -25.607
191.42081, -25.615
191.41837, -25.601
191.41592, -25.576
191.41348, -25.555
191.41103, -25.551
191.40859, -25.562
191.40614, -25.587
191.40370, -25.609
191.40126, -25.614
191.39881, -25.607
191.39637, -25.595
191.39392, -25.595
191.39148, -25.613
191.38904, -25.644
191.38659, -25.677
191.38415, -25.698
191.38171, -25.702
191.37926, -25.690
191.37682, -25.685
191.37438, -25.698
191.37193, -25.732
191.36949, -25.775
191.36705, -25.814
191.36460, -25.840
191.36216, -25.850
191.35972, -25.848
191.35729, -25.857
191.35484, -25.888
191.35240, -25.925
191.34996, -25.962
191.34752, -25.980
191.34507, -25.983
191.34263, -25.975
191.34019, -25.965
191.33775, -25.975
191.33530, -26.007
191.33286, -26.050
191.33042, -26.078
191.32798, -26.091
191.32554, -26.090
191.32309, -26.078
191.32065, -26.075
191.31821, -26.091
191.31577, -26.123
191.31333, -26.154
191.31088, -26.171
191.30844, -26.166
191.30600, -26.158
191.30356, -26.154
191.30112, -26.172
191.29868, -26.206
191.29625, -26.261
191.29381, -26.312
191.29136, -26.343
191.28892, -26.358
191.28648, -26.372
191.28404, -26.399
191.28160, -26.440
191.27916, -26.499
191.27672, -26.562
191.27428, -26.605
191.27184, -26.633
191.26940, -26.653
191.26696, -26.681
191.26452, -26.725
191.26207, -26.789
191.25963, -26.859
191.25719, -26.921
191.25475, -26.961
191.25231, -26.978
191.24987, -26.993
191.24743, -27.012
191.24499, -27.040
191.24255, -27.080
191.24011, -27.118
191.23767, -27.139
191.23523, -27.141
191.23281, -27.125
191.23037, -27.108
191.22793, -27.108
191.22549, -27.121
191.22305, -27.145
191.22061, -27.162
191.21817, -27.156
191.21573, -27.124
191.21329, -27.087
191.21085, -27.057
191.20841, -27.040
191.20597, -27.040
191.20353, -27.040
191.20110, -27.033
191.19866, -27.013
191.19622, -26.975
191.19378, -26.938
191.19134, -26.920
191.18890, -26.922
191.18646, -26.932
191.18403, -26.942
191.18159, -26.934
191.17915, -26.912
191.17671, -26.881
191.17427, -26.855
191.17185, -26.849
191.16941, -26.861
191.16697, -26.882
191.16453, -26.890
191.16209, -26.890
191.15966, -26.875
191.15722, -26.862
191.15478, -26.869
191.15234, -26.897
191.14991, -26.937
191.14747, -26.969
191.14503, -26.983
191.14259, -26.983
191.14016, -26.975
191.13772, -26.970
191.13528, -26.985
191.13284, -27.020
191.13041, -27.059
191.12797, -27.087
191.12553, -27.106
191.12310, -27.111
191.12066, -27.112
191.11822, -27.123
191.11579, -27.151
191.11335, -27.190
191.11091, -27.221
191.10849, -27.242
191.10605, -27.238
191.10361, -27.226
191.10118, -27.216
191.09874, -27.218
191.09631, -27.234
191.09387, -27.262
191.09143, -27.278
191.08900, -27.275
191.08656, -27.260
191.08413, -27.237
191.08169, -27.226
191.07925, -27.228
191.07682, -27.243
191.07438, -27.255
191.07195, -27.248
191.06951, -27.226
191.06708, -27.213
191.06464, -27.236
191.06221, -27.364
191.05977, -27.660
191.05733, -28.236
191.05490, -29.234
191.05246, -30.973
191.05003, -33.730
191.04759, -36.931
191.04517, -38.517
191.04274, -36.913
191.04030, -35.379
191.03787, -34.719
191.03543, -34.539
191.03300, -34.520
191.03056, -34.522
191.02813, -34.549
191.02569, -34.566
191.02326, -34.591
191.02083, -34.608
191.01839, -34.621
191.01596, -34.648
191.01352, -34.670
191.01109, -34.672
191.00865, -34.692
191.00622, -34.717
191.00379, -34.740
191.00135, -34.763
190.99892, -34.797
190.99649, -34.821
190.99405, -34.859
190.99162, -34.881
190.98919, -34.912
190.98675, -34.944
190.98433, -34.979
190.98190, -35.021
190.97946, -35.059
190.97703, -35.107
190.97460, -35.130
190.97216, -35.172
190.96973, -35.193
190.96730, -35.234
190.96487, -35.266
190.96243, -35.294
190.96000, -35.345
190.95757, -35.386
190.95513, -35.419
190.95270, -35.454
190.95027, -35.494
190.94784, -35.526
190.94540, -35.570
190.94297, -35.590
190.94054, -35.636
190.93811, -35.665
190.93568, -35.703
190.93324, -35.731
190.93081, -35.782
190.92838, -35.832
190.92595, -35.885
190.92352, -35.911
190.92110, -35.957
190.91866, -35.988
190.91623, -36.007
190.91380, -36.058
190.91137, -36.094
190.90894, -36.132
190.90651, -36.191
190.90408, -36.225
190.90164, -36.275
190.89921, -36.333
190.89678, -36.376
190.89435, -36.424
190.89192, -36.467
190.88949, -36.513
190.88706, -36.558
190.88463, -36.615
190.88220, -36.652
190.87977, -36.709
190.87734, -36.761
190.87490, -36.825
190.87247, -36.879
190.87004, -36.945
190.86761, -36.986
190.86518, -37.030
190.86275, -37.052
190.86033, -37.080
190.85790, -37.140
190.85547, -37.183
190.85304, -37.249
190.85061, -37.283
190.84818, -37.328
190.84575, -37.341
190.84332, -37.345
190.84089, -37.392
190.83847, -37.432
190.83604, -37.456
190.83361, -37.504
190.83118, -37.524
190.82875, -37.545
190.82632, -37.541
190.82389, -37.543
190.82146, -37.532
190.81903, -37.547
190.81660, -37.561
190.81417, -37.569
190.81174, -37.590
190.80931, -37.577
190.80689, -37.599
190.80446, -37.582
190.80203, -37.602
190.79960, -37.624
190.79718, -37.671
190.79475, -37.731
190.79233, -37.782
190.78990, -37.928
190.78747, -38.171
190.78504, -38.522
190.78261, -38.980
190.78018, -39.389
190.77776, -39.605
190.77533, -39.503
190.77290, -39.277
190.77047, -39.050
190.76804, -39.029
190.76562, -39.148
190.76319, -39.270
190.76076, -39.480
190.75833, -39.384
190.75591, -39.495
190.75348, -39.524
190.75105, -39.575
190.74862, -39.674
190.74620, -39.652
190.74377, -39.792
190.74134, -39.772
190.73891, -39.892
190.73650, -39.890
190.73407, -40.065
190.73165, -40.020
190.72922, -40.128
190.72679, -40.205
190.72436, -40.188
190.72194, -40.277
190.71951, -40.343
190.71709, -40.255
190.71466, -40.456
190.71223, -40.124
190.70981, -40.499
190.70738, -40.223
190.70495, -40.588
190.70253, -40.403
190.70010, -40.723
190.69767, -40.661
190.69525, -41.007
190.69282, -40.920
190.69040, -41.095
190.68797, -41.099
190.68555, -41.197
190.68312, -41.226
190.68069, -41.358
190.67827, -41.309
190.67584, -41.464
190.67343, -41.430
190.67100, -41.540
190.66858, -41.460
190.66615, -41.681
190.66373, -41.635
190.66130, -41.797
190.65888, -41.695
190.65645, -41.841
190.65403, -41.673
190.65160, -41.898
190.64918, -41.682
190.64675, -42.110
190.64433, -42.029
190.64190, -42.160
190.63948, -42.335
190.63705, -42.181
190.63463, -42.333
190.63221, -42.294
190.62978, -42.502
190.62736, -42.603
190.62493, -42.602
190.62251, -42.731
190.62008, -42.736
190.61766, -42.773
190.61524, -42.834
190.61281, -42.867
190.61040, -42.968
190.60798, -42.980
190.60555, -43.172
190.60313, -43.086
190.60071, -43.216
190.59828, -43.222
190.59586, -43.130
190.59344, -43.337
190.59101, -43.234
190.58859, -43.577
190.58617, -43.348
190.58374, -43.565
190.58132, -43.610
190.57890, -43.591
190.57647, -43.756
190.57405, -43.560
190.57163, -43.867
190.56920, -43.520
190.56678, -43.766
190.56436, -43.673
190.56194, -43.891
190.55951, -43.876
190.55709, -44.045
190.55467, -44.080
190.55225, -44.215
190.54984, -44.195
190.54741, -44.123
190.54499, -44.405
190.54257, -44.246
190.54015, -44.510
190.53773, -44.418
190.53530, -44.534
190.53288, -44.648
190.53046, -44.563
190.52804, -44.873
190.52562, -44.684
190.52320, -44.911
190.52077, -44.731
190.51835, -45.018
190.51593, -44.934
190.51351, -45.204
190.51109, -45.124
190.50867, -45.275
190.50625, -45.240
190.50382, -45.328
190.50140, -45.304
190.49898, -45.446
190.49656, -45.413
190.49414, -45.451
190.49172, -45.422
190.48930, -45.627
190.48689, -45.415
190.48447, -45.677
190.48205, -45.536
190.47963, -45.727
190.47721, -45.787
190.47479, -45.808
190.47237, -45.851
190.46995, -45.880
190.46753, -45.882
190.46511, -46.049
190.46269, -46.057
190.46027, -46.076
190.45785, -46.123
190.45543, -46.152
190.45301, -46.299
190.45059, -46.296
190.44817, -46.261
190.44575, -46.173
190.44333, -46.453
190.44091, -46.387
190.43849, -46.453
190.43607, -46.443
190.43365, -46.336
190.43123, -46.509
190.42881, -46.471
190.42640, -46.577
190.42398, -46.668
190.42157, -46.737
190.41915, -46.578
190.41673, -46.823
190.41431, -46.566
190.41189, -46.753
190.40947, -46.818
190.40705, -46.787
190.40463, -46.994
190.40222, -46.840
190.39980, -47.047
190.39738, -47.057
190.39496, -47.184
190.39254, -47.219
190.39012, -47.063
190.38771, -47.196
190.38529, -47.251
190.38287, -47.197
190.38045, -47.321
190.37803, -47.474
190.37562, -47.322
190.37320, -47.444
190.37078, -47.389
190.36836, -47.472
190.36594, -47.449
190.36354, -47.327
190.36112, -47.662
190.35870, -47.511
190.35629, -47.634
190.35387, -47.441
190.35145, -47.656
190.34903, -47.773
190.34662, -47.719
190.34420, -47.824
190.34178, -47.716
190.33937, -47.781
190.33695, -47.993
190.33453, -47.836
190.33212, -47.951
190.32970, -47.922
190.32728, -48.008
190.32487, -47.937
190.32245, -48.090
190.32003, -48.131
190.31762, -48.079
190.31520, -48.156
190.31278, -48.168
190.31037, -48.182
190.30795, -48.260
190.30554, -48.198
190.30313, -48.236
190.30072, -48.331
190.29830, -48.246
190.29588, -48.413
190.29347, -48.335
190.29105, -48.405
190.28864, -48.550
190.28622, -48.433
190.28380, -48.517
190.28139, -48.697
190.27897, -48.721
190.27656, -48.652
190.27414, -48.723
190.27173, -48.737
190.26931, -48.767
190.26690, -48.759
190.26448, -48.784
190.26207, -48.661
190.25965, -48.853
190.25724, -48.905
190.25482, -48.992
190.25241, -49.189
190.24999, -49.053
190.24758, -48.818
190.24516, -49.094
190.24275, -49.129
190.24035, -49.186
190.23793, -49.214
190.23552, -49.211
190.23310, -49.349
190.23069, -49.216
190.22828, -49.284
190.22586, -49.195
190.22345, -49.532
190.22103, -49.520
190.21862, -49.479
190.21621, -49.441
190.21379, -49.572
190.21138, -49.818
190.20896, -49.551
190.20655, -49.666
190.20414, -49.646
190.20172, -49.641
190.19931, -49.793
190.19690, -50.036
190.19448, -49.747
190.19207, -49.885
190.18966, -49.799
190.18724, -49.815
190.18483, -49.969
190.18242, -49.846
190.18001, -50.083
190.17760, -49.996
190.17519, -50.091
190.17278, -50.220
190.17037, -50.284
190.16795, -50.319
190.16554, -50.349
190.16313, -50.226
190.16072, -50.282
190.15830, -50.361
190.15589, -50.219
190.15348, -50.454
190.15107, -50.689
190.14866, -50.636
190.14624, -50.607
190.14383, -50.570
190.14142, -50.688
190.13901, -50.467
190.13660, -50.648
190.13418, -50.755
190.13177, -50.746
190.12936, -50.894
190.12695, -50.912
190.12454, -50.780
190.12213, -50.934
190.11971, -51.245
190.11732, -51.015
190.11490, -50.928
190.11249, -51.059
190.11008, -51.389
190.10767, -50.899
190.10526, -51.672
190.10285, -51.306
190.10044, -50.999
190.09803, -51.249
190.09562, -51.305
190.09321, -51.194
190.09079, -51.332
190.08838, -51.398
190.08597, -51.341
190.08356, -51.201
190.08115, -51.479
190.07874, -51.647
190.07633, -51.832
190.07392, -51.734
190.07151, -51.548
190.06910, -51.645
190.06669, -51.708
190.06428, -51.911
190.06187, -51.703
190.05946, -51.777
190.05705, -51.611
190.05465, -51.986
190.05224, -52.070
190.04983, -52.369
190.04742, -51.757
190.04502, -51.970
190.04261, -52.245
190.04020, -51.988
190.03779, -52.296
190.03538, -52.462
190.03297, -52.162
190.03056, -52.220
190.02815, -52.278
190.02574, -52.136
190.02333, -52.605
190.02092, -52.177
190.01851, -52.275
190.01611, -52.701
190.01370, -52.345
190.01129, -53.186
190.00888, -52.514
190.00647, -52.626
190.00406, -52.138
190.00165, -52.751
189.99925, -52.425
189.99684, -53.037
189.99444, -52.694
189.99203, -52.932
189.98963, -52.613
189.98722, -52.617
189.98481, -52.873
189.98240, -52.877
189.97999, -53.103
189.97759, -53.219
189.97518, -53.151
189.97277, -52.925
189.97036, -52.944
189.96796, -53.083
189.96555, -53.600
189.96314, -53.013
189.96073, -53.334
189.95833, -53.731
189.95592, -53.698
189.95351, -53.217
189.95110, -53.148
189.94870, -53.322
189.94629, -53.092
189.94388, -53.330
189.94148, -53.230
189.93907, -53.215
189.93666, -53.460
189.93426, -54.236
189.93186, -54.182
189.92946, -54.846
189.92705, -54.778
189.92464, -53.789
189.92224, -54.261
189.91983, -53.776
189.91742, -53.448
189.91502, -53.291
189.91261, -53.811
189.91020, -53.477
189.90780, -53.781
189.90539, -54.047
189.90299, -54.591
189.90058, -55.095
189.89818, -54.555
189.89577, -54.231
189.89336, -54.257
189.89096, -53.667
189.88855, -53.986
189.88615, -53.395
189.88374, -53.760
189.88134, -53.998
189.87893, -54.588
189.87653, -54.247
189.87412, -54.862
189.87173, -55.099
189.86932, -54.111
189.86692, -54.377
189.86451, -53.944
189.86211, -53.163
189.85970, -53.790
189.85730, -54.354
189.85489, -53.786
189.85249, -54.870
189.85008, -54.952
189.84768, -55.038
189.84528, -54.921
189.84287, -54.976
189.84047, -53.963
189.83806, -54.147
189.83566, -53.850
189.83325, -54.297
189.83085, -53.866
189.82845, -54.297
189.82604, -55.374
189.82364, -55.085
189.82123, -55.479
189.81883, -54.706
189.81643, -54.980
189.81402, -55.190
189.81162, -55.173
189.80923, -54.736
189.80682, -54.771
189.80442, -54.286
189.80202, -54.725
189.79961, -55.163
189.79721, -54.798
189.79481, -54.486
189.79241, -55.318
189.79000, -55.288
189.78760, -55.113
189.78520, -54.806
189.78279, -55.355
189.78039, -54.907
189.77799, -55.095
189.77559, -54.737
189.77318, -55.724
189.77078, -55.826
189.76838, -56.760
189.76597, -55.053
189.76357, -54.804
189.76117, -55.456
189.75877, -55.483
189.75637, -55.223
189.75396, -55.823
189.75156, -55.673
189.74917, -55.572
189.74677, -55.512
189.74437, -55.206
189.74197, -54.883
189.73956, -55.699
189.73716, -55.091
189.73476, -55.870
189.73236, -55.453
189.72996, -55.752
189.72756, -55.297
189.72515, -54.620
189.72275, -55.081
189.72035, -55.519
189.71795, -55.877
189.71555, -55.416
189.71315, -56.104
189.71075, -56.127
189.70835, -55.497
189.70595, -55.548
189.70355, -55.476
189.70114, -55.421
189.69874, -55.723
189.69634, -54.973
189.69394, -53.916
189.69154, -54.098
189.68914, -54.347
189.68675, -54.036
189.68435, -53.162
189.68195, -53.065
189.67955, -52.009
189.67715, -51.140
189.67475, -50.132
189.67235, -49.568
189.66995, -49.131
189.66755, -48.582
189.66515, -48.205
189.66275, -47.720
189.66035, -47.048
189.65795, -46.130
189.65555, -45.501
189.65315, -44.944
189.65075, -44.286
189.64835, -43.934
189.64595, -43.592
189.64356, -43.431
189.64116, -43.203
189.63876, -43.094
189.63636, -43.065
189.63396, -43.029
189.63156, -43.026
189.62916, -43.109
189.62676, -43.130
189.62437, -43.261
189.62198, -43.383
189.61958, -43.552
189.61718, -43.842
189.61478, -44.096
189.61238, -44.429
189.60998, -44.894
189.60758, -45.207
189.60519, -45.695
189.60279, -46.209
189.60039, -46.987
189.59799, -47.818
189.59559, -48.398
189.59320, -49.161
189.59080, -49.797
189.58840, -50.431
189.58600, -51.367
189.58360, -51.593
189.58121, -52.396
189.57881, -53.513
189.57641, -53.686
189.57401, -54.663
189.57162, -55.329
189.56922, -56.433
189.56682, -56.298
189.56444, -56.379
189.56204, -57.100
189.55964, -56.764
189.55724, -57.030
189.55485, -57.048
189.55245, -56.947
189.55005, -57.908
189.54766, -56.066
189.54526, -56.719
189.54286, -57.923
189.54047, -58.937
189.53807, -56.870
189.53567, -59.720
189.53328, -56.848
189.53088, -57.228
189.52848, -58.064
189.52609, -57.831
189.52369, -57.597
189.52129, -58.633
189.51890, -56.993
189.51650, -57.980
189.51411, -57.888
189.51171, -57.982
189.50931, -57.277
189.50692, -58.144
189.50452, -57.847
189.50214, -58.127
189.49974, -58.769
189.49735, -59.077
189.49495, -56.952
189.49256, -58.611
189.49016, -58.741
189.48776, -59.263
189.48537, -57.438
189.48297, -58.189
189.48058, -58.229
189.47818, -59.220
189.47579, -57.960
189.47339, -58.586
189.47100, -59.196
189.46860, -58.088
189.46621, -58.794
189.46381, -57.063
189.46142, -58.252
189.45902, -57.666
189.45663, -59.818
189.45424, -58.184
189.45184, -59.300
189.44945, -59.816
189.44705, -58.927
189.44466, -58.475
189.44228, -59.116
189.43988, -59.800
189.43749, -58.897
189.43509, -60.126
189.43270, -60.473
189.43031, -59.024
189.42791, -59.783
189.42552, -59.360
189.42312, -57.471
189.42073, -57.511
189.41834, -59.209
189.41594, -57.658
189.41355, -57.408
189.41116, -58.159
189.40876, -59.892
189.40637, -59.011
189.40398, -57.746
189.40158, -58.275
189.39919, -58.379
189.39680, -58.255
189.39440, -57.851
189.39201, -57.996
189.38962, -57.409
189.38722, -57.639
189.38483, -57.270
189.38244, -58.446
189.38006, -58.875
189.37767, -59.179
189.37527, -60.302
189.37288, -56.793
189.37049, -56.762
189.36810, -58.303
189.36570, -58.394
189.36331, -58.234
189.36092, -57.845
189.35853, -60.704
189.35614, -56.914
189.35374, -58.542
189.35135, -57.617
189.34896, -58.232
189.34657, -59.250
189.34418, -57.984
189.34178, -57.762
189.33939, -57.999
189.33700, -57.246
189.33461, -57.512
189.33222, -57.934
189.32983, -58.366
189.32743, -57.247
189.32504, -58.407
189.32265, -58.944
189.32027, -58.728
189.31788, -60.917
189.31549, -59.168
189.31310, -59.068
189.31071, -59.063
189.30832, -58.670
189.30593, -60.050
189.30354, -59.702
189.30115, -62.169
189.29876, -62.332
189.29636, -61.543
189.29397, -61.543
189.29158, -58.686
189.28919, -60.425
189.28680, -59.531
189.28441, -59.869
189.28202, -62.293
189.27963, -64.445
189.27724, -60.537
189.27485, -63.323
189.27246, -58.875
189.27007, -63.150
189.26768, -59.185
189.26529, -60.710
189.26290, -59.991
189.26051, -61.537
189.25814, -60.591
189.25575, -64.889
189.25336, -63.476
189.25097, -62.483
189.24858, -61.085
189.24619, -59.717
189.24380, -60.274
189.24141, -61.019
189.23902, -59.177
189.23663, -60.144
189.23424, -63.891
189.23185, -60.049
189.22947, -59.621
189.22708, -62.937
189.22469, -65.179
189.22230, -63.197
189.21991, -62.789
189.21752, -61.423
189.21513, -61.793
189.21275, -60.920
189.21036, -61.823
189.20797, -62.240
189.20558, -58.930
189.20319, -61.989
189.20080, -62.550
189.19842, -62.815
189.19604, -64.637
189.19365, -65.731
189.19126, -61.253
189.18888, -63.356
189.18649, -62.060
189.18410, -61.828
189.18171, -60.298
189.17933, -64.879
189.17694, -61.986
189.17455, -60.640
189.17216, -61.169
189.16978, -61.209
189.16739, -62.365
189.16500, -60.914
189.16261, -58.900
189.16023, -60.602
189.15784, -59.755
189.15545, -61.671
189.15307, -63.373
189.15068, -60.819
189.14829, -63.051
189.14591, -66.454
189.14352, -65.185
189.14113, -61.414
189.13875, -62.876
189.13637, -67.890
189.13398, -67.615
189.13160, -71.982
189.12921, -64.628
189.12683,-210.000
189.12444, -63.238
189.12205, -61.203
189.11967, -62.586
189.11728, -61.454
189.11489, -63.814
189.11251, -60.722
189.11012, -64.597
189.10774, -63.345
189.10535, -60.288
189.10297, -63.434
189.10058, -60.782
189.09819, -62.226
189.09581, -63.937
189.09342, -60.399
189.09104, -62.463
189.08865, -62.920
189.08627, -63.022
189.08388, -61.198
189.08150, -70.152
189.07911, -68.279
189.07673, -66.800
189.07435, -61.096
189.07197, -62.799
189.06958, -63.020
189.06720, -63.870
189.06482,-210.000
189.06243, -63.230
189.06005, -63.996
189.05766, -62.569
189.05528, -63.869
189.05289, -61.584
189.05051, -59.755
189.04812, -67.181
189.04574, -60.281
189.04336, -64.617
189.04097, -60.506
189.03859, -62.457
189.03620, -63.173
189.03382, -62.393
189.03144, -63.098
189.02905, -67.909
189.02667,-210.000
189.02428, -66.327
189.02190, -63.633
189.01952, -63.013
189.01713, -67.314
189.01476, -66.110
189.01238, -75.525
189.01000, -61.964
189.00761, -70.142
189.00523, -65.253
189.00285, -65.706
189.00046, -66.435
188.99808,-210.000
188.99570, -60.798
188.99331, -63.627
188.99093, -61.464
188.98855, -63.385
188.98617, -62.133
188.98378, -61.685
188.98140, -70.704
188.97902, -63.349
188.97663, -61.800
188.97425,-210.000
188.97187, -61.646
188.96949, -62.164
188.96711, -64.665
188.96472, -65.512
188.96234, -67.590
188.95996, -71.497
188.95758, -62.291
188.95520, -63.729
188.95283, -62.077
188.95044, -65.603
188.94806, -63.607
188.94568,-210.000
188.94330, -62.246
188.94092, -64.752
188.93854, -63.210
188.93615, -73.052
188.93377, -63.849
188.93139, -65.562
188.92901, -64.452
188.92663, -63.616
188.92425, -62.464
188.92187, -65.036
188.91949, -72.115
188.91710, -72.115
188.91472, -63.909
188.91234, -75.891
188.90996,-210.000
188.90758, -69.865
188.90520, -61.464
188.90282, -66.896
188.90044, -67.156
188.89806, -65.234
188.89568, -68.390
188.89331, -68.249
188.89093, -64.373
188.88855, -64.821
188.88617, -60.561
188.88379, -67.431
188.88141, -63.840
188.87903, -74.519
188.87665, -63.595
188.87427,-210.000
188.87189, -60.739
188.86951, -61.590
188.86713, -65.228
188.86475, -71.480
188.86237, -63.362
188.85999, -61.499
188.85761, -65.778
188.85523, -64.367
188.85285, -61.678
188.85047, -67.877
188.84809, -63.360
188.84571, -63.896
188.84334,-210.000
188.84096, -62.315
188.83858, -62.057
188.83620, -66.760
188.83382, -71.331
188.83145, -61.720
188.82907, -68.378
188.82669, -72.541
188.82432,-210.000
188.82194,-210.000
188.81956, -64.824
188.81718, -67.715
188.81480, -69.849
188.81242, -66.517
188.81005,-210.000
188.80767, -64.431
188.80529, -64.728
188.80291, -67.713
188.80053, -68.198
188.79815, -61.855
188.79578, -68.198
188.79340, -65.215
188.79102, -65.320
188.78864, -63.349
188.78627, -63.077
188.78389, -62.751
188.78151, -60.885
188.77913, -62.349
188.77676,-210.000
188.77438,-210.000
188.77200, -62.969
188.76964, -68.663
188.76726, -67.133
188.76488, -62.866
188.76250, -69.693
