70BCSV 	
// AQ6370D OPTICAL SPECTRUM ANALYZER //                 
35
"CTRWL",1547.216155
"SPAN",  79.900000
"START WL",1508.297000
"STOP WL",1588.197000
"WLFREQ", 1
"REFL",-20.0
"LSCL", 5.0
"RESLN",0.100
"AVG",   1
"SMPLAUTO",      1
"SMPL",       3996
"SMPLINTVL",0.0200
"MID"
"MEAS"
"LSUNT",0
"NMSKH","OFF"
"RESCOR",0
"RESCORMODE",2
"SMOOTH",0
"FIBERTYPE",0
"MEASWL",1
"SWPSPD",0
"MODELNAME","AQ6370D"
"NEBWCAL0",    0
"NEBWCAL1",    0
"NEBWCALWL",   0
"RESPARM", 9622
"FREQPARM", 9622







"[TRACE DATA]"
198.76222, -80.925
198.75958, -78.050
198.75695, -79.079
198.75431, -78.001
198.75168, -77.090
198.74904, -78.242
198.74641, -77.277
198.74377, -78.088
198.74114, -77.437
198.73850, -78.105
198.73587, -77.469
198.73323, -77.465
198.73060, -76.734
198.72796, -80.846
198.72533, -76.965
198.72269, -77.357
198.72006, -76.811
198.71742, -76.564
198.71479, -78.481
198.71216, -80.087
198.70952, -78.052
198.70689, -76.639
198.70425, -78.034
198.70162, -78.594
198.69898, -79.313
198.69635, -75.991
198.69372, -79.994
198.69108, -76.139
198.68845, -76.577
198.68582, -76.829
198.68318, -76.676
198.68055, -75.610
198.67792, -76.847
198.67528, -78.088
198.67265, -76.406
198.67002, -75.369
198.66738, -76.458
198.66475, -75.920
198.66212, -79.399
198.65948, -77.208
198.65685, -76.437
198.65422, -77.120
198.65159, -75.757
198.64895, -77.283
198.64632, -76.119
198.64369, -76.762
198.64106, -76.667
198.63842, -75.953
198.63579, -77.311
198.63316, -75.651
198.63053, -76.690
198.62789, -76.884
198.62526, -75.609
198.62263, -77.640
198.62000, -75.878
198.61737, -76.635
198.61474, -76.211
198.61210, -75.423
198.60947, -76.405
198.60684, -75.418
198.60421, -76.786
198.60158, -75.836
198.59895, -77.172
198.59632, -76.324
198.59368, -75.314
198.59105, -76.147
198.58842, -74.857
198.58579, -75.920
198.58316, -75.680
198.58053, -75.836
198.57790, -76.316
198.57527, -75.996
198.57264, -74.905
198.57001, -78.093
198.56738, -76.564
198.56475, -77.236
198.56212, -76.638
198.55949, -75.489
198.55686, -77.081
198.55423, -75.476
198.55160, -76.737
198.54897, -76.538
198.54634, -76.232
198.54371, -74.925
198.54108, -76.147
198.53845, -76.914
198.53582, -76.464
198.53319, -74.044
198.53056, -74.909
198.52793, -76.418
198.52530, -75.310
198.52267, -78.072
198.52004, -75.429
198.51741, -75.780
198.51478, -75.913
198.51215, -76.449
198.50952, -77.703
198.50690, -76.158
198.50427, -75.909
198.50164, -75.070
198.49901, -75.787
198.49638, -75.427
198.49375, -73.852
198.49112, -75.676
198.48850, -75.142
198.48587, -74.576
198.48324, -75.782
198.48061, -76.545
198.47798, -75.302
198.47535, -76.414
198.47273, -75.853
198.47010, -75.479
198.46747, -74.986
198.46484, -76.144
198.46222, -74.883
198.45959, -74.785
198.45696, -75.923
198.45433, -74.669
198.45171, -74.761
198.44908, -75.304
198.44645, -74.226
198.44382, -73.778
198.44120, -76.259
198.43857, -76.084
198.43594, -75.003
198.43332, -74.871
198.43069, -75.536
198.42806, -74.437
198.42544, -73.702
198.42281, -74.211
198.42018, -74.754
198.41756, -75.067
198.41493, -76.694
198.41230, -74.738
198.40968, -76.129
198.40705, -75.637
198.40442, -73.593
198.40180, -74.870
198.39917, -76.039
198.39655, -74.413
198.39392, -74.041
198.39129, -74.799
198.38867, -74.824
198.38604, -75.353
198.38342, -75.320
198.38079, -75.494
198.37817, -74.317
198.37554, -74.165
198.37292, -74.338
198.37029, -74.175
198.36767, -75.353
198.36504, -75.469
198.36242, -73.647
198.35979, -74.025
198.35717, -74.053
198.35454, -74.915
198.35192, -74.954
198.34929, -74.124
198.34667, -75.167
198.34404, -73.973
198.34142, -74.283
198.33879, -73.599
198.33617, -73.824
198.33354, -74.238
198.33092, -73.815
198.32830, -73.811
198.32567, -75.060
198.32305, -74.164
198.32042, -74.307
198.31780, -75.233
198.31518, -73.140
198.31255, -73.104
198.30993, -74.277
198.30731, -73.473
198.30468, -75.315
198.30206, -73.148
198.29944, -73.491
198.29681, -72.738
198.29419, -73.721
198.29157, -73.962
198.28894, -74.147
198.28632, -73.001
198.28370, -73.672
198.28107, -72.665
198.27845, -73.205
198.27583, -73.818
198.27321, -74.289
198.27058, -72.641
198.26796, -73.505
198.26534, -74.292
198.26272, -73.793
198.26009, -72.961
198.25747, -72.206
198.25485, -73.300
198.25223, -73.425
198.24961, -73.402
198.24698, -73.342
198.24436, -73.353
198.24174, -73.269
198.23912, -73.039
198.23650, -72.466
198.23387, -74.319
198.23125, -72.944
198.22863, -73.052
198.22601, -72.734
198.22339, -73.814
198.22077, -71.995
198.21815, -71.828
198.21552, -73.079
198.21290, -72.213
198.21028, -72.380
198.20766, -72.783
198.20504, -72.799
198.20242, -71.529
198.19980, -73.148
198.19718, -72.509
198.19456, -73.645
198.19194, -72.676
198.18932, -72.566
198.18670, -71.843
198.18408, -72.012
198.18146, -71.923
198.17884, -71.884
198.17622, -73.568
198.17360, -72.664
198.17098, -72.728
198.16836, -71.492
198.16574, -71.794
198.16312, -72.027
198.16050, -71.888
198.15788, -72.349
198.15526, -71.889
198.15264, -72.350
198.15002, -72.077
198.14740, -71.782
198.14478, -72.551
198.14216, -71.823
198.13954, -72.367
198.13692, -71.930
198.13430, -72.397
198.13168, -72.047
198.12907, -72.573
198.12645, -71.804
198.12383, -71.966
198.12121, -72.003
198.11859, -71.825
198.11597, -71.940
198.11335, -71.504
198.11074, -71.801
198.10812, -71.914
198.10550, -71.945
198.10288, -72.068
198.10026, -71.922
198.09765, -72.139
198.09503, -71.698
198.09241, -71.356
198.08979, -71.676
198.08717, -71.430
198.08456, -71.519
198.08194, -71.622
198.07932, -71.518
198.07670, -71.561
198.07409, -71.327
198.07147, -71.724
198.06885, -71.490
198.06623, -71.523
198.06362, -71.010
198.06100, -71.154
198.05838, -71.213
198.05577, -71.329
198.05315, -71.309
198.05053, -70.580
198.04792, -71.160
198.04530, -71.077
198.04268, -71.481
198.04007, -71.396
198.03745, -71.548
198.03483, -72.034
198.03222, -71.613
198.02960, -71.334
198.02698, -71.140
198.02437, -70.902
198.02175, -71.011
198.01914, -71.159
198.01652, -71.079
198.01390, -71.024
198.01129, -71.367
198.00867, -70.959
198.00606, -71.660
198.00344, -71.313
198.00083, -71.281
197.99821, -70.845
197.99560, -70.802
197.99298, -70.987
197.99037, -70.509
197.98775, -70.471
197.98514, -70.854
197.98252, -70.754
197.97991, -70.589
197.97729, -71.117
197.97468, -70.319
197.97206, -70.537
197.96945, -70.489
197.96683, -70.474
197.96422, -70.701
197.96160, -70.576
197.95899, -70.331
197.95637, -70.486
197.95376, -70.367
197.95115, -70.248
197.94853, -70.328
197.94592, -70.519
197.94330, -70.060
197.94069, -70.608
197.93808, -70.413
197.93546, -69.971
197.93285, -70.548
197.93024, -70.452
197.92762, -70.153
197.92501, -69.966
197.92240, -69.976
197.91978, -70.084
197.91717, -70.109
197.91456, -70.382
197.91194, -70.055
197.90933, -70.259
197.90672, -69.916
197.90410, -70.256
197.90149, -70.138
197.89888, -69.754
197.89626, -69.637
197.89365, -70.218
197.89104, -70.603
197.88843, -69.737
197.88581, -70.058
197.88320, -69.368
197.88059, -69.304
197.87798, -69.635
197.87537, -69.672
197.87275, -69.634
197.87014, -69.473
197.86753, -69.400
197.86492, -69.350
197.86231, -69.735
197.85969, -69.623
197.85708, -69.726
197.85447, -69.592
197.85186, -69.734
197.84925, -69.579
197.84664, -69.356
197.84403, -69.851
197.84141, -69.537
197.83880, -69.602
197.83619, -69.537
197.83358, -69.829
197.83097, -69.347
197.82836, -69.622
197.82575, -69.063
197.82314, -69.281
197.82053, -69.259
197.81792, -69.155
197.81531, -68.873
197.81269, -68.924
197.81008, -69.110
197.80747, -68.991
197.80486, -69.190
197.80225, -69.067
197.79964, -68.833
197.79703, -68.985
197.79442, -68.957
197.79181, -69.137
197.78920, -68.651
197.78659, -68.834
197.78398, -68.928
197.78137, -68.805
197.77876, -68.747
197.77616, -68.907
197.77355, -68.712
197.77094, -68.357
197.76833, -68.191
197.76572, -68.435
197.76311, -68.908
197.76050, -68.719
197.75789, -69.039
197.75528, -68.815
197.75267, -68.575
197.75006, -68.150
197.74745, -68.299
197.74485, -68.411
197.74224, -68.444
197.73963, -67.992
197.73702, -68.437
197.73441, -68.404
197.73180, -68.355
197.72920, -68.282
197.72659, -68.397
197.72398, -68.498
197.72137, -68.142
197.71876, -68.274
197.71615, -68.468
197.71355, -68.355
197.71094, -68.145
197.70833, -68.055
197.70572, -68.296
197.70312, -68.011
197.70051, -68.054
197.69790, -68.192
197.69529, -68.058
197.69269, -68.163
197.69008, -68.018
197.68747, -68.169
197.68486, -68.166
197.68226, -68.110
197.67965, -68.073
197.67704, -68.037
197.67444, -67.776
197.67183, -67.932
197.66922, -68.145
197.66662, -67.912
197.66401, -67.778
197.66140, -68.041
197.65880, -67.720
197.65619, -67.932
197.65358, -67.621
197.65098, -67.703
197.64837, -67.658
197.64577, -67.548
197.64316, -67.659
197.64055, -67.566
197.63795, -67.711
197.63534, -67.793
197.63274, -67.712
197.63013, -67.652
197.62753, -67.807
197.62492, -67.500
197.62231, -67.571
197.61971, -67.455
197.61710, -67.455
197.61450, -67.579
197.61189, -67.594
197.60929, -67.694
197.60668, -67.366
197.60408, -67.515
197.60147, -67.631
197.59887, -67.253
197.59626, -67.221
197.59366, -67.159
197.59105, -67.288
197.58845, -67.259
197.58584, -67.202
197.58324, -67.435
197.58064, -67.151
197.57803, -67.284
197.57543, -67.450
197.57282, -67.158
197.57022, -67.217
197.56762, -67.295
197.56501, -67.334
197.56241, -67.248
197.55980, -67.156
197.55720, -66.957
197.55460, -66.902
197.55199, -67.056
197.54939, -66.825
197.54679, -66.898
197.54418, -67.029
197.54158, -67.068
197.53898, -67.016
197.53637, -67.017
197.53377, -67.080
197.53117, -66.911
197.52856, -66.864
197.52596, -66.925
197.52336, -66.720
197.52075, -66.791
197.51815, -66.893
197.51555, -66.885
197.51295, -66.768
197.51034, -66.825
197.50774, -66.767
197.50514, -66.661
197.50254, -66.785
197.49993, -66.812
197.49733, -66.762
197.49473, -66.637
197.49213, -66.485
197.48953, -66.477
197.48692, -66.502
197.48432, -66.466
197.48172, -66.660
197.47912, -66.483
197.47652, -66.547
197.47392, -66.404
197.47131, -66.382
197.46871, -66.292
197.46611, -66.338
197.46351, -66.357
197.46091, -66.351
197.45831, -66.093
197.45571, -66.363
197.45311, -66.151
197.45050, -66.235
197.44790, -66.048
197.44530, -66.271
197.44270, -66.129
197.44010, -66.182
197.43750, -66.330
197.43490, -66.170
197.43230, -66.242
197.42970, -66.068
197.42710, -66.219
197.42450, -66.067
197.42190, -66.132
197.41930, -66.115
197.41670, -66.136
197.41410, -65.963
197.41150, -65.992
197.40890, -65.850
197.40630, -65.794
197.40370, -66.063
197.40110, -65.958
197.39850, -66.015
197.39590, -65.860
197.39330, -66.053
197.39070, -65.915
197.38810, -65.864
197.38550, -65.945
197.38290, -65.956
197.38031, -65.869
197.37771, -65.922
197.37511, -65.911
197.37251, -65.987
197.36991, -65.891
197.36731, -65.910
197.36471, -65.800
197.36211, -65.703
197.35951, -65.747
197.35692, -65.700
197.35432, -65.738
197.35172, -65.735
197.34912, -65.732
197.34652, -65.658
197.34392, -65.733
197.34133, -65.768
197.33873, -65.695
197.33613, -65.736
197.33353, -65.679
197.33094, -65.560
197.32834, -65.628
197.32574, -65.527
197.32314, -65.625
197.32054, -65.540
197.31795, -65.555
197.31535, -65.441
197.31275, -65.307
197.31016, -65.494
197.30756, -65.377
197.30496, -65.274
197.30236, -65.464
197.29977, -65.494
197.29717, -65.429
197.29457, -65.359
197.29198, -65.578
197.28938, -65.422
197.28678, -65.366
197.28419, -65.377
197.28159, -65.327
197.27899, -65.444
197.27640, -65.196
197.27380, -65.282
197.27120, -65.350
197.26861, -65.327
197.26601, -65.364
197.26342, -65.385
197.26082, -65.220
197.25822, -65.096
197.25563, -65.293
197.25303, -65.221
197.25044, -65.294
197.24784, -65.221
197.24525, -65.232
197.24265, -65.216
197.24006, -65.239
197.23746, -65.178
197.23486, -65.062
197.23227, -65.158
197.22967, -65.122
197.22708, -65.313
197.22448, -65.045
197.22189, -65.016
197.21929, -65.019
197.21670, -65.126
197.21411, -65.009
197.21151, -64.994
197.20892, -64.911
197.20632, -64.984
197.20373, -64.988
197.20113, -64.894
197.19854, -64.969
197.19594, -64.793
197.19335, -64.864
197.19076, -64.846
197.18816, -64.918
197.18557, -64.747
197.18297, -64.745
197.18038, -64.692
197.17779, -64.639
197.17519, -64.668
197.17260, -64.504
197.17001, -64.719
197.16741, -64.711
197.16482, -64.698
197.16222, -64.769
197.15963, -64.609
197.15704, -64.709
197.15445, -64.715
197.15185, -64.659
197.14926, -64.737
197.14667, -64.724
197.14407, -64.619
197.14148, -64.692
197.13889, -64.557
197.13630, -64.669
197.13370, -64.650
197.13111, -64.487
197.12852, -64.512
197.12593, -64.505
197.12333, -64.358
197.12074, -64.316
197.11815, -64.394
197.11556, -64.252
197.11296, -64.412
197.11037, -64.310
197.10778, -64.437
197.10519, -64.182
197.10260, -64.379
197.10000, -64.255
197.09741, -64.287
197.09482, -64.276
197.09223, -64.342
197.08964, -64.210
197.08705, -64.271
197.08446, -64.195
197.08186, -64.075
197.07927, -64.126
197.07668, -63.921
197.07409, -64.087
197.07150, -63.961
197.06891, -63.840
197.06632, -64.028
197.06373, -63.948
197.06114, -63.936
197.05855, -63.925
197.05596, -63.816
197.05337, -63.780
197.05078, -63.788
197.04818, -63.796
197.04559, -63.792
197.04300, -63.632
197.04041, -63.830
197.03782, -63.700
197.03523, -63.837
197.03264, -63.697
197.03005, -63.669
197.02746, -63.730
197.02487, -63.664
197.02228, -63.577
197.01970, -63.528
197.01711, -63.381
197.01452, -63.333
197.01193, -63.354
197.00934, -63.193
197.00675, -63.403
197.00416, -63.315
197.00157, -63.240
196.99898, -63.292
196.99639, -63.212
196.99380, -63.284
196.99121, -63.246
196.98863, -63.272
196.98604, -63.223
196.98345, -63.073
196.98086, -63.205
196.97827, -63.157
196.97568, -63.096
196.97309, -63.023
196.97051, -62.979
196.96792, -62.848
196.96533, -62.936
196.96274, -62.889
196.96015, -62.944
196.95757, -62.873
196.95498, -62.809
196.95239, -62.733
196.94980, -62.549
196.94721, -62.509
196.94463, -62.463
196.94204, -62.480
196.93945, -62.558
196.93686, -62.705
196.93428, -62.664
196.93169, -62.697
196.92910, -62.568
196.92651, -62.560
196.92393, -62.460
196.92134, -62.398
196.91875, -62.395
196.91617, -62.383
196.91358, -62.358
196.91099, -62.323
196.90841, -62.288
196.90582, -62.209
196.90323, -62.144
196.90065, -62.224
196.89806, -62.205
196.89547, -62.162
196.89289, -62.140
196.89030, -62.152
196.88772, -62.033
196.88513, -61.974
196.88254, -61.974
196.87996, -61.816
196.87737, -61.778
196.87479, -61.692
196.87220, -61.548
196.86961, -61.644
196.86703, -61.631
196.86444, -61.658
196.86186, -61.778
196.85927, -61.576
196.85669, -61.639
196.85410, -61.453
196.85152, -61.559
196.84893, -61.425
196.84635, -61.534
196.84376, -61.377
196.84118, -61.380
196.83859, -61.326
196.83601, -61.376
196.83342, -61.364
196.83084, -61.362
196.82825, -61.278
196.82567, -61.261
196.82308, -61.108
196.82050, -61.086
196.81792, -61.043
196.81533, -61.047
196.81275, -60.876
196.81016, -60.833
196.80758, -60.756
196.80499, -60.698
196.80241, -60.818
196.79983, -60.635
196.79724, -60.694
196.79466, -60.472
196.79208, -60.457
196.78949, -60.408
196.78691, -60.486
196.78433, -60.416
196.78174, -60.434
196.77916, -60.397
196.77658, -60.270
196.77399, -60.246
196.77141, -60.159
196.76883, -60.128
196.76624, -60.155
196.76366, -60.082
196.76108, -60.154
196.75849, -60.162
196.75591, -59.973
196.75333, -60.063
196.75075, -59.809
196.74816, -59.794
196.74558, -59.712
196.74300, -59.583
196.74042, -59.623
196.73784, -59.432
196.73525, -59.395
196.73267, -59.345
196.73009, -59.339
196.72751, -59.478
196.72493, -59.470
196.72234, -59.552
196.71976, -59.519
196.71718, -59.373
196.71460, -59.350
196.71202, -59.165
196.70944, -59.113
196.70685, -59.206
196.70427, -59.077
196.70169, -59.130
196.69911, -58.922
196.69653, -58.807
196.69395, -58.721
196.69137, -58.408
196.68879, -58.347
196.68621, -58.118
196.68362, -58.161
196.68104, -58.086
196.67846, -58.103
196.67588, -58.088
196.67330, -58.133
196.67072, -58.186
196.66814, -58.485
196.66556, -58.579
196.66298, -58.425
196.66040, -57.826
196.65782, -57.263
196.65524, -57.088
196.65266, -57.520
196.65008, -58.513
196.64750, -59.751
196.64492, -60.303
196.64234, -59.898
196.63976, -58.993
196.63718, -58.224
196.63460, -57.671
196.63202, -57.084
196.62944, -56.537
196.62686, -56.002
196.62429, -55.694
196.62171, -55.764
196.61913, -56.103
196.61655, -56.601
196.61397, -56.995
196.61139, -57.144
196.60881, -57.147
196.60623, -57.146
196.60365, -57.118
196.60108, -57.117
196.59850, -56.998
196.59592, -56.771
196.59334, -56.560
196.59076, -56.392
196.58818, -56.318
196.58561, -56.271
196.58303, -56.208
196.58045, -56.055
196.57787, -55.881
196.57529, -55.743
196.57272, -55.745
196.57014, -55.835
196.56756, -55.945
196.56498, -56.093
196.56240, -56.238
196.55983, -56.355
196.55725, -56.444
196.55467, -56.434
196.55209, -56.343
196.54952, -56.244
196.54694, -56.150
196.54436, -55.963
196.54179, -55.772
196.53921, -55.608
196.53663, -55.408
196.53406, -55.234
196.53148, -55.187
196.52890, -55.134
196.52632, -55.069
196.52375, -55.068
196.52117, -55.099
196.51860, -55.042
196.51602, -54.974
196.51344, -54.986
196.51087, -54.987
196.50829, -54.985
196.50571, -54.962
196.50314, -55.019
196.50056, -54.995
196.49799, -54.951
196.49541, -54.970
196.49283, -55.074
196.49026, -55.418
196.48768, -55.477
196.48511, -51.244
196.48253, -44.368
196.47996, -38.202
196.47738, -33.960
196.47481, -30.927
196.47223, -28.705
196.46966, -27.274
196.46708, -26.454
196.46451, -26.065
196.46193, -25.969
196.45936, -26.008
196.45678, -26.076
196.45421, -26.122
196.45163, -26.147
196.44906, -26.155
196.44648, -26.162
196.44391, -26.167
196.44133, -26.173
196.43876, -26.181
196.43618, -26.188
196.43361, -26.197
196.43104, -26.199
196.42846, -26.205
196.42589, -26.205
196.42331, -26.210
196.42074, -26.213
196.41817, -26.219
196.41559, -26.222
196.41302, -26.221
196.41045, -26.220
196.40787, -26.217
196.40530, -26.220
196.40272, -26.220
196.40015, -26.224
196.39758, -26.222
196.39500, -26.223
196.39243, -26.221
196.38986, -26.222
196.38729, -26.221
196.38471, -26.221
196.38214, -26.223
196.37957, -26.222
196.37699, -26.226
196.37442, -26.225
196.37185, -26.228
196.36928, -26.227
196.36670, -26.227
196.36413, -26.226
196.36156, -26.227
196.35899, -26.229
196.35641, -26.229
196.35384, -26.232
196.35127, -26.229
196.34870, -26.228
196.34613, -26.223
196.34355, -26.224
196.34098, -26.222
196.33841, -26.223
196.33584, -26.224
196.33327, -26.223
196.33070, -26.224
196.32813, -26.223
196.32555, -26.227
196.32298, -26.227
196.32041, -26.231
196.31784, -26.230
196.31527, -26.231
196.31270, -26.233
196.31013, -26.238
196.30756, -26.243
196.30498, -26.248
196.30241, -26.254
196.29984, -26.257
196.29727, -26.262
196.29470, -26.263
196.29213, -26.267
196.28956, -26.271
196.28699, -26.277
196.28442, -26.284
196.28185, -26.290
196.27928, -26.294
196.27671, -26.294
196.27414, -26.295
196.27157, -26.293
196.26900, -26.295
196.26643, -26.298
196.26386, -26.301
196.26129, -26.302
196.25872, -26.303
196.25615, -26.304
196.25358, -26.305
196.25101, -26.307
196.24844, -26.307
196.24587, -26.310
196.24330, -26.311
196.24074, -26.312
196.23817, -26.309
196.23560, -26.306
196.23303, -26.303
196.23046, -26.300
196.22789, -26.299
196.22532, -26.296
196.22275, -26.297
196.22018, -26.293
196.21762, -26.292
196.21505, -26.286
196.21248, -26.283
196.20991, -26.280
196.20734, -26.278
196.20477, -26.273
196.20221, -26.264
196.19964, -26.261
196.19707, -26.254
196.19450, -26.251
196.19193, -26.248
196.18937, -26.247
196.18680, -26.246
196.18423, -26.245
196.18166, -26.243
196.17910, -26.239
196.17653, -26.238
196.17396, -26.232
196.17139, -26.232
196.16883, -26.229
196.16626, -26.230
196.16369, -26.227
196.16112, -26.227
196.15856, -26.224
196.15599, -26.221
196.15342, -26.220
196.15086, -26.217
196.14829, -26.220
196.14572, -26.216
196.14316, -26.215
196.14059, -26.209
196.13802, -26.207
196.13546, -26.207
196.13289, -26.209
196.13032, -26.212
196.12776, -26.210
196.12519, -26.211
196.12263, -26.205
196.12006, -26.203
196.11749, -26.194
196.11493, -26.194
196.11236, -26.192
196.10980, -26.192
196.10723, -26.191
196.10467, -26.188
196.10210, -26.185
196.09953, -26.179
196.09697, -26.178
196.09440, -26.173
196.09184, -26.173
196.08927, -26.168
196.08671, -26.164
196.08414, -26.159
196.08158, -26.153
196.07901, -26.149
196.07645, -26.142
196.07388, -26.139
196.07132, -26.133
196.06875, -26.132
196.06619, -26.127
196.06362, -26.123
196.06106, -26.119
196.05850, -26.114
196.05593, -26.112
196.05337, -26.108
196.05080, -26.108
196.04824, -26.103
196.04567, -26.100
196.04311, -26.091
196.04055, -26.084
196.03798, -26.077
196.03542, -26.073
196.03286, -26.071
196.03029, -26.066
196.02773, -26.063
196.02516, -26.055
196.02260, -26.051
196.02004, -26.045
196.01747, -26.045
196.01491, -26.043
196.01235, -26.041
196.00979, -26.036
196.00722, -26.030
196.00466, -26.026
196.00210, -26.020
195.99953, -26.018
195.99697, -26.014
195.99441, -26.016
195.99185, -26.015
195.98928, -26.018
195.98672, -26.018
195.98416, -26.018
195.98160, -26.016
195.97903, -26.013
195.97647, -26.014
195.97391, -26.011
195.97135, -26.012
195.96878, -26.008
195.96622, -26.009
195.96366, -26.006
195.96110, -26.006
195.95854, -26.005
195.95597, -26.004
195.95341, -26.005
195.95085, -25.999
195.94829, -25.998
195.94573, -25.991
195.94317, -25.989
195.94061, -25.984
195.93804, -25.984
195.93548, -25.984
195.93292, -25.982
195.93036, -25.982
195.92780, -25.976
195.92524, -25.973
195.92268, -25.965
195.92012, -25.962
195.91756, -25.958
195.91500, -25.959
195.91244, -25.958
195.90988, -25.955
195.90731, -25.954
195.90475, -25.949
195.90219, -25.948
195.89963, -25.943
195.89707, -25.944
195.89451, -25.941
195.89195, -25.942
195.88939, -25.939
195.88683, -25.937
195.88427, -25.935
195.88171, -25.929
195.87915, -25.928
195.87659, -25.925
195.87404, -25.930
195.87148, -25.932
195.86892, -25.934
195.86636, -25.932
195.86380, -25.930
195.86124, -25.931
195.85868, -25.931
195.85612, -25.934
195.85356, -25.931
195.85100, -25.932
195.84844, -25.928
195.84588, -25.928
195.84333, -25.928
195.84077, -25.930
195.83821, -25.931
195.83565, -25.931
195.83309, -25.934
195.83053, -25.932
195.82797, -25.935
195.82542, -25.933
195.82286, -25.936
195.82030, -25.934
195.81774, -25.934
195.81518, -25.933
195.81263, -25.930
195.81007, -25.930
195.80751, -25.928
195.80495, -25.929
195.80239, -25.925
195.79984, -25.925
195.79728, -25.922
195.79472, -25.921
195.79216, -25.918
195.78961, -25.913
195.78705, -25.911
195.78449, -25.908
195.78193, -25.908
195.77938, -25.904
195.77682, -25.906
195.77426, -25.902
195.77171, -25.903
195.76915, -25.902
195.76659, -25.901
195.76404, -25.903
195.76148, -25.902
195.75892, -25.904
195.75637, -25.901
195.75381, -25.901
195.75125, -25.896
195.74870, -25.897
195.74614, -25.895
195.74359, -25.895
195.74103, -25.896
195.73847, -25.895
195.73592, -25.896
195.73336, -25.890
195.73081, -25.892
195.72825, -25.889
195.72569, -25.891
195.72314, -25.891
195.72058, -25.892
195.71803, -25.891
195.71547, -25.890
195.71292, -25.893
195.71036, -25.891
195.70781, -25.893
195.70525, -25.890
195.70270, -25.891
195.70014, -25.889
195.69759, -25.891
195.69503, -25.891
195.69248, -25.891
195.68992, -25.892
195.68737, -25.888
195.68481, -25.890
195.68226, -25.889
195.67970, -25.894
195.67715, -25.895
195.67459, -25.897
195.67204, -25.896
195.66949, -25.894
195.66693, -25.893
195.66438, -25.891
195.66182, -25.893
195.65927, -25.889
195.65671, -25.889
195.65416, -25.885
195.65161, -25.883
195.64905, -25.880
195.64650, -25.880
195.64395, -25.883
195.64139, -25.881
195.63884, -25.882
195.63629, -25.878
195.63373, -25.878
195.63118, -25.873
195.62863, -25.873
195.62607, -25.873
195.62352, -25.870
195.62097, -25.872
195.61841, -25.870
195.61586, -25.873
195.61331, -25.869
195.61076, -25.871
195.60820, -25.870
195.60565, -25.871
195.60310, -25.871
195.60055, -25.870
195.59799, -25.869
195.59544, -25.864
195.59289, -25.865
195.59034, -25.863
195.58778, -25.869
195.58523, -25.870
195.58268, -25.872
195.58013, -25.871
195.57758, -25.869
195.57503, -25.869
195.57247, -25.867
195.56992, -25.871
195.56737, -25.871
195.56482, -25.876
195.56227, -25.875
195.55972, -25.876
195.55716, -25.875
195.55461, -25.874
195.55206, -25.874
195.54951, -25.874
195.54696, -25.878
195.54441, -25.876
195.54186, -25.878
195.53931, -25.876
195.53676, -25.878
195.53421, -25.880
195.53166, -25.883
195.52910, -25.887
195.52655, -25.887
195.52400, -25.890
195.52145, -25.888
195.51890, -25.893
195.51635, -25.891
195.51380, -25.894
195.51125, -25.894
195.50870, -25.894
195.50615, -25.894
195.50360, -25.890
195.50105, -25.893
195.49850, -25.889
195.49595, -25.893
195.49340, -25.890
195.49085, -25.893
195.48830, -25.893
195.48576, -25.894
195.48321, -25.894
195.48066, -25.890
195.47811, -25.889
195.47556, -25.883
195.47301, -25.886
195.47046, -25.884
195.46791, -25.886
195.46536, -25.884
195.46281, -25.883
195.46026, -25.883
195.45772, -25.880
195.45517, -25.882
195.45262, -25.878
195.45007, -25.882
195.44752, -25.879
195.44497, -25.880
195.44242, -25.877
195.43988, -25.874
195.43733, -25.872
195.43478, -25.866
195.43223, -25.865
195.42968, -25.862
195.42714, -25.865
195.42459, -25.861
195.42204, -25.861
195.41949, -25.856
195.41695, -25.852
195.41440, -25.849
195.41185, -25.847
195.40930, -25.850
195.40676, -25.850
195.40421, -25.853
195.40166, -25.850
195.39911, -25.849
195.39657, -25.846
195.39402, -25.844
195.39147, -25.847
195.38893, -25.847
195.38638, -25.851
195.38383, -25.849
195.38129, -25.852
195.37874, -25.848
195.37619, -25.851
195.37365, -25.854
195.37110, -25.857
195.36855, -25.861
195.36601, -25.859
195.36346, -25.860
195.36091, -25.854
195.35837, -25.856
195.35582, -25.854
195.35328, -25.857
195.35073, -25.856
195.34818, -25.853
195.34564, -25.850
195.34309, -25.844
195.34055, -25.845
195.33800, -25.842
195.33546, -25.844
195.33291, -25.839
195.33036, -25.841
195.32782, -25.838
195.32527, -25.837
195.32273, -25.838
195.32018, -25.834
195.31764, -25.836
195.31509, -25.833
195.31255, -25.836
195.31000, -25.835
195.30746, -25.839
195.30491, -25.839
195.30237, -25.836
195.29983, -25.836
195.29728, -25.833
195.29474, -25.839
195.29219, -25.838
195.28965, -25.844
195.28710, -25.842
195.28456, -25.843
195.28202, -25.843
195.27947, -25.846
195.27693, -25.852
195.27438, -25.854
195.27184, -25.861
195.26930, -25.860
195.26675, -25.864
195.26421, -25.863
195.26166, -25.864
195.25912, -25.865
195.25658, -25.864
195.25403, -25.867
195.25149, -25.866
195.24895, -25.871
195.24640, -25.869
195.24386, -25.875
195.24132, -25.877
195.23877, -25.881
195.23623, -25.884
195.23369, -25.884
195.23115, -25.887
195.22860, -25.884
195.22606, -25.889
195.22352, -25.886
195.22098, -25.889
195.21843, -25.887
195.21589, -25.887
195.21335, -25.887
195.21081, -25.886
195.20826, -25.890
195.20572, -25.886
195.20318, -25.888
195.20064, -25.884
195.19810, -25.886
195.19555, -25.884
195.19301, -25.886
195.19047, -25.887
195.18793, -25.883
195.18539, -25.883
195.18285, -25.877
195.18030, -25.878
195.17776, -25.874
195.17522, -25.877
195.17268, -25.878
195.17014, -25.880
195.16760, -25.881
195.16506, -25.878
195.16252, -25.880
195.15997, -25.875
195.15743, -25.879
195.15489, -25.876
195.15235, -25.879
195.14981, -25.880
195.14727, -25.881
195.14473, -25.882
195.14219, -25.880
195.13965, -25.882
195.13711, -25.880
195.13457, -25.884
195.13203, -25.884
195.12949, -25.886
195.12695, -25.886
195.12441, -25.884
195.12187, -25.887
195.11933, -25.886
195.11679, -25.893
195.11425, -25.897
195.11171, -25.902
195.10917, -25.901
195.10663, -25.903
195.10409, -25.906
195.10155, -25.909
195.09901, -25.918
195.09647, -25.920
195.09393, -25.928
195.09139, -25.926
195.08885, -25.930
195.08632, -25.930
195.08378, -25.934
195.08124, -25.938
195.07870, -25.939
195.07616, -25.943
195.07362, -25.940
195.07108, -25.943
195.06854, -25.938
195.06601, -25.939
195.06347, -25.938
195.06093, -25.938
195.05839, -25.938
195.05585, -25.933
195.05331, -25.932
195.05078, -25.924
195.04824, -25.925
195.04570, -25.921
195.04316, -25.925
195.04062, -25.928
195.03809, -25.932
195.03555, -25.936
195.03301, -25.935
195.03047, -25.942
195.02794, -25.944
195.02540, -25.954
195.02286, -25.957
195.02032, -25.963
195.01779, -25.965
195.01525, -25.968
195.01271, -25.974
195.01018, -25.977
195.00764, -25.987
195.00510, -25.989
195.00256, -25.999
195.00003, -26.002
194.99749, -26.008
194.99495, -26.012
194.99242, -26.018
194.98988, -26.027
194.98735, -26.032
194.98481, -26.044
194.98227, -26.047
194.97974, -26.055
194.97720, -26.057
194.97466, -26.062
194.97213, -26.065
194.96959, -26.065
194.96706, -26.071
194.96452, -26.068
194.96198, -26.073
194.95945, -26.072
194.95691, -26.078
194.95438, -26.080
194.95184, -26.083
194.94931, -26.085
194.94677, -26.081
194.94424, -26.082
194.94170, -26.079
194.93916, -26.084
194.93663, -26.081
194.93409, -26.086
194.93156, -26.087
194.92902, -26.087
194.92649, -26.088
194.92395, -26.088
194.92142, -26.094
194.91889, -26.094
194.91635, -26.102
194.91382, -26.100
194.91128, -26.101
194.90875, -26.099
194.90621, -26.098
194.90368, -26.103
194.90114, -26.103
194.89861, -26.110
194.89608, -26.111
194.89354, -26.118
194.89101, -26.119
194.88847, -26.125
194.88594, -26.132
194.88341, -26.136
194.88087, -26.145
194.87834, -26.147
194.87581, -26.153
194.87327, -26.151
194.87074, -26.155
194.86821, -26.156
194.86567, -26.159
194.86314, -26.164
194.86061, -26.166
194.85807, -26.175
194.85554, -26.176
194.85301, -26.183
194.85047, -26.182
194.84794, -26.187
194.84541, -26.191
194.84288, -26.196
194.84034, -26.205
194.83781, -26.207
194.83528, -26.213
194.83275, -26.210
194.83021, -26.215
194.82768, -26.217
194.82515, -26.224
194.82262, -26.230
194.82008, -26.229
194.81755, -26.229
194.81502, -26.222
194.81249, -26.223
194.80996, -26.220
194.80742, -26.227
194.80489, -26.229
194.80236, -26.232
194.79983, -26.234
194.79730, -26.234
194.79477, -26.238
194.79224, -26.239
194.78970, -26.247
194.78717, -26.247
194.78464, -26.249
194.78211, -26.245
194.77958, -26.244
194.77705, -26.244
194.77452, -26.237
194.77199, -26.242
194.76946, -26.242
194.76693, -26.247
194.76439, -26.244
194.76186, -26.244
194.75933, -26.243
194.75680, -26.240
194.75427, -26.247
194.75174, -26.251
194.74921, -26.264
194.74668, -26.271
194.74415, -26.285
194.74162, -26.293
194.73909, -26.304
194.73656, -26.314
194.73403, -26.318
194.73150, -26.324
194.72897, -26.324
194.72644, -26.327
194.72391, -26.324
194.72138, -26.327
194.71885, -26.327
194.71632, -26.330
194.71380, -26.336
194.71127, -26.338
194.70874, -26.345
194.70621, -26.343
194.70368, -26.350
194.70115, -26.352
194.69862, -26.358
194.69609, -26.364
194.69356, -26.368
194.69103, -26.376
194.68851, -26.379
194.68598, -26.387
194.68345, -26.388
194.68092, -26.394
194.67839, -26.398
194.67586, -26.402
194.67333, -26.405
194.67081, -26.402
194.66828, -26.404
194.66575, -26.402
194.66322, -26.409
194.66069, -26.409
194.65817, -26.413
194.65564, -26.413
194.65311, -26.411
194.65058, -26.409
194.64806, -26.406
194.64553, -26.412
194.64300, -26.410
194.64047, -26.413
194.63795, -26.410
194.63542, -26.409
194.63289, -26.409
194.63036, -26.407
194.62784, -26.410
194.62531, -26.406
194.62278, -26.406
194.62026, -26.399
194.61773, -26.397
194.61520, -26.393
194.61268, -26.391
194.61015, -26.393
194.60762, -26.390
194.60510, -26.392
194.60257, -26.386
194.60004, -26.388
194.59752, -26.385
194.59499, -26.388
194.59246, -26.389
194.58994, -26.389
194.58741, -26.395
194.58489, -26.396
194.58236, -26.403
194.57983, -26.401
194.57731, -26.407
194.57478, -26.409
194.57226, -26.415
194.56973, -26.421
194.56721, -26.421
194.56468, -26.426
194.56215, -26.423
194.55963, -26.425
194.55710, -26.427
194.55458, -26.435
194.55205, -26.442
194.54953, -26.445
194.54700, -26.450
194.54448, -26.448
194.54195, -26.452
194.53943, -26.453
194.53690, -26.462
194.53438, -26.467
194.53185, -26.473
194.52933, -26.476
194.52681, -26.471
194.52428, -26.471
194.52176, -26.466
194.51923, -26.469
194.51671, -26.468
194.51418, -26.470
194.51166, -26.469
194.50914, -26.463
194.50661, -26.460
194.50409, -26.450
194.50156, -26.450
194.49904, -26.447
194.49652, -26.447
194.49399, -26.440
194.49147, -26.432
194.48895, -26.423
194.48642, -26.414
194.48390, -26.416
194.48138, -26.414
194.47885, -26.417
194.47633, -26.415
194.47381, -26.415
194.47128, -26.410
194.46876, -26.404
194.46624, -26.405
194.46371, -26.404
194.46119, -26.410
194.45867, -26.408
194.45615, -26.409
194.45362, -26.406
194.45110, -26.407
194.44858, -26.410
194.44606, -26.411
194.44353, -26.420
194.44101, -26.423
194.43849, -26.431
194.43597, -26.431
194.43345, -26.430
194.43092, -26.431
194.42840, -26.431
194.42588, -26.437
194.42336, -26.440
194.42084, -26.447
194.41831, -26.446
194.41579, -26.450
194.41327, -26.449
194.41075, -26.450
194.40823, -26.452
194.40571, -26.452
194.40319, -26.457
194.40066, -26.453
194.39814, -26.456
194.39562, -26.453
194.39310, -26.456
194.39058, -26.458
194.38806, -26.457
194.38554, -26.457
194.38302, -26.448
194.38050, -26.446
194.37798, -26.440
194.37546, -26.442
194.37294, -26.441
194.37042, -26.443
194.36789, -26.443
194.36537, -26.437
194.36285, -26.432
194.36033, -26.419
194.35781, -26.416
194.35529, -26.407
194.35277, -26.405
194.35025, -26.399
194.34773, -26.388
194.34521, -26.380
194.34269, -26.367
194.34018, -26.366
194.33766, -26.364
194.33514, -26.370
194.33262, -26.370
194.33010, -26.368
194.32758, -26.367
194.32506, -26.363
194.32254, -26.365
194.32002, -26.365
194.31750, -26.371
194.31498, -26.370
194.31246, -26.370
194.30994, -26.369
194.30743, -26.368
194.30491, -26.371
194.30239, -26.372
194.29987, -26.380
194.29735, -26.382
194.29483, -26.389
194.29231, -26.389
194.28980, -26.388
194.28728, -26.387
194.28476, -26.384
194.28224, -26.388
194.27972, -26.387
194.27721, -26.391
194.27469, -26.388
194.27217, -26.386
194.26965, -26.385
194.26713, -26.383
194.26462, -26.386
194.26210, -26.386
194.25958, -26.391
194.25706, -26.388
194.25455, -26.384
194.25203, -26.378
194.24951, -26.374
194.24699, -26.374
194.24448, -26.375
194.24196, -26.380
194.23944, -26.376
194.23693, -26.374
194.23441, -26.369
194.23189, -26.370
194.22938, -26.374
194.22686, -26.379
194.22434, -26.386
194.22183, -26.384
194.21931, -26.383
194.21679, -26.375
194.21428, -26.371
194.21176, -26.370
194.20924, -26.372
194.20673, -26.377
194.20421, -26.378
194.20169, -26.381
194.19918, -26.375
194.19666, -26.372
194.19415, -26.367
194.19163, -26.369
194.18912, -26.373
194.18660, -26.373
194.18408, -26.377
194.18157, -26.376
194.17905, -26.377
194.17654, -26.378
194.17402, -26.384
194.17151, -26.388
194.16899, -26.390
194.16648, -26.392
194.16396, -26.390
194.16145, -26.391
194.15893, -26.391
194.15642, -26.394
194.15390, -26.395
194.15139, -26.396
194.14887, -26.398
194.14636, -26.399
194.14384, -26.399
194.14133, -26.396
194.13881, -26.401
194.13630, -26.405
194.13379, -26.411
194.13127, -26.414
194.12876, -26.416
194.12624, -26.418
194.12373, -26.415
194.12122, -26.416
194.11870, -26.414
194.11619, -26.418
194.11367, -26.417
194.11116, -26.413
194.10865, -26.409
194.10613, -26.401
194.10362, -26.397
194.10111, -26.393
194.09859, -26.394
194.09608, -26.394
194.09357, -26.393
194.09105, -26.388
194.08854, -26.379
194.08603, -26.374
194.08351, -26.369
194.08100, -26.372
194.07849, -26.371
194.07598, -26.370
194.07346, -26.364
194.07095, -26.358
194.06844, -26.357
194.06592, -26.357
194.06341, -26.363
194.06090, -26.364
194.05839, -26.369
194.05587, -26.367
194.05336, -26.363
194.05085, -26.364
194.04834, -26.364
194.04583, -26.372
194.04331, -26.376
194.04080, -26.383
194.03829, -26.383
194.03578, -26.382
194.03327, -26.384
194.03076, -26.386
194.02824, -26.398
194.02573, -26.404
194.02322, -26.415
194.02071, -26.416
194.01820, -26.418
194.01569, -26.421
194.01318, -26.424
194.01067, -26.436
194.00815, -26.444
194.00564, -26.453
194.00313, -26.457
194.00062, -26.461
193.99811, -26.462
193.99560, -26.468
193.99309, -26.476
193.99058, -26.481
193.98807, -26.492
193.98556, -26.496
193.98305, -26.500
193.98054, -26.501
193.97803, -26.504
193.97552, -26.510
193.97301, -26.514
193.97050, -26.526
193.96799, -26.531
193.96548, -26.540
193.96297, -26.537
193.96046, -26.537
193.95795, -26.538
193.95544, -26.538
193.95293, -26.546
193.95042, -26.549
193.94791, -26.554
193.94540, -26.544
193.94289, -26.538
193.94038, -26.532
193.93787, -26.529
193.93536, -26.532
193.93285, -26.532
193.93034, -26.535
193.92783, -26.526
193.92533, -26.525
193.92282, -26.521
193.92031, -26.522
193.91780, -26.525
193.91529, -26.526
193.91278, -26.531
193.91027, -26.525
193.90777, -26.524
193.90526, -26.518
193.90275, -26.517
193.90024, -26.518
193.89773, -26.519
193.89522, -26.526
193.89272, -26.523
193.89021, -26.528
193.88770, -26.528
193.88519, -26.533
193.88268, -26.536
193.88018, -26.538
193.87767, -26.542
193.87516, -26.540
193.87265, -26.546
193.87015, -26.547
193.86764, -26.553
193.86513, -26.557
193.86262, -26.566
193.86012, -26.572
193.85761, -26.572
193.85510, -26.576
193.85260, -26.572
193.85009, -26.575
193.84758, -26.574
193.84508, -26.583
193.84257, -26.591
193.84006, -26.595
193.83756, -26.600
193.83505, -26.598
193.83254, -26.599
193.83004, -26.596
193.82753, -26.600
193.82502, -26.604
193.82252, -26.607
193.82001, -26.611
193.81750, -26.607
193.81500, -26.607
193.81249, -26.602
193.80999, -26.608
193.80748, -26.613
193.80497, -26.613
193.80247, -26.611
193.79996, -26.601
193.79746, -26.593
193.79495, -26.583
193.79245, -26.580
193.78994, -26.580
193.78744, -26.585
193.78493, -26.585
193.78243, -26.577
193.77992, -26.573
193.77742, -26.568
193.77491, -26.571
193.77241, -26.574
193.76990, -26.579
193.76740, -26.581
193.76489, -26.577
193.76239, -26.572
193.75988, -26.568
193.75738, -26.571
193.75487, -26.578
193.75237, -26.590
193.74986, -26.598
193.74736, -26.601
193.74486, -26.599
193.74235, -26.596
193.73985, -26.602
193.73734, -26.612
193.73484, -26.624
193.73234, -26.635
193.72983, -26.645
193.72733, -26.648
193.72482, -26.647
193.72232, -26.650
193.71982, -26.660
193.71731, -26.672
193.71481, -26.685
193.71231, -26.694
193.70980, -26.698
193.70730, -26.699
193.70480, -26.702
193.70229, -26.707
193.69979, -26.715
193.69729, -26.720
193.69478, -26.729
193.69228, -26.737
193.68978, -26.737
193.68728, -26.739
193.68477, -26.741
193.68227, -26.749
193.67977, -26.754
193.67727, -26.759
193.67476, -26.763
193.67226, -26.763
193.66976, -26.761
193.66726, -26.757
193.66475, -26.756
193.66225, -26.756
193.65975, -26.756
193.65725, -26.751
193.65475, -26.743
193.65224, -26.737
193.64974, -26.727
193.64724, -26.724
193.64474, -26.722
193.64224, -26.727
193.63974, -26.726
193.63723, -26.720
193.63473, -26.714
193.63223, -26.704
193.62973, -26.701
193.62723, -26.699
193.62473, -26.703
193.62223, -26.703
193.61973, -26.699
193.61723, -26.696
193.61472, -26.691
193.61222, -26.692
193.60972, -26.693
193.60722, -26.700
193.60472, -26.703
193.60222, -26.701
193.59972, -26.697
193.59722, -26.695
193.59472, -26.700
193.59222, -26.705
193.58972, -26.711
193.58722, -26.717
193.58472, -26.724
193.58222, -26.726
193.57972, -26.727
193.57722, -26.729
193.57472, -26.735
193.57222, -26.746
193.56972, -26.757
193.56722, -26.766
193.56472, -26.770
193.56222, -26.767
193.55972, -26.767
193.55722, -26.771
193.55472, -26.775
193.55222, -26.781
193.54972, -26.788
193.54722, -26.789
193.54473, -26.786
193.54223, -26.784
193.53973, -26.784
193.53723, -26.788
193.53473, -26.789
193.53223, -26.787
193.52973, -26.781
193.52723, -26.769
193.52474, -26.760
193.52224, -26.752
193.51974, -26.748
193.51724, -26.749
193.51474, -26.753
193.51224, -26.755
193.50975, -26.756
193.50725, -26.752
193.50475, -26.748
193.50225, -26.751
193.49975, -26.762
193.49726, -26.770
193.49476, -26.771
193.49226, -26.766
193.48976, -26.756
193.48727, -26.742
193.48477, -26.733
193.48227, -26.731
193.47977, -26.733
193.47728, -26.731
193.47478, -26.728
193.47228, -26.724
193.46978, -26.725
193.46729, -26.730
193.46479, -26.740
193.46229, -26.751
193.45980, -26.760
193.45730, -26.762
193.45480, -26.757
193.45231, -26.752
193.44981, -26.752
193.44731, -26.759
193.44482, -26.770
193.44232, -26.781
193.43982, -26.788
193.43733, -26.792
193.43483, -26.794
193.43233, -26.796
193.42984, -26.803
193.42734, -26.812
193.42485, -26.826
193.42235, -26.837
193.41985, -26.840
193.41736, -26.837
193.41486, -26.829
193.41237, -26.827
193.40987, -26.829
193.40738, -26.836
193.40488, -26.844
193.40239, -26.848
193.39989, -26.845
193.39740, -26.838
193.39490, -26.831
193.39240, -26.829
193.38991, -26.831
193.38741, -26.834
193.38492, -26.834
193.38242, -26.826
193.37993, -26.816
193.37744, -26.804
193.37494, -26.799
193.37245, -26.799
193.36995, -26.800
193.36746, -26.803
193.36496, -26.802
193.36247, -26.794
193.35997, -26.784
193.35748, -26.779
193.35499, -26.780
193.35249, -26.783
193.35000, -26.786
193.34750, -26.785
193.34501, -26.779
193.34252, -26.769
193.34002, -26.759
193.33753, -26.760
193.33503, -26.768
193.33254, -26.780
193.33005, -26.786
193.32755, -26.785
193.32506, -26.782
193.32257, -26.779
193.32007, -26.780
193.31758, -26.783
193.31509, -26.787
193.31259, -26.789
193.31010, -26.784
193.30761, -26.778
193.30512, -26.772
193.30262, -26.771
193.30013, -26.777
193.29764, -26.788
193.29514, -26.794
193.29265, -26.794
193.29016, -26.794
193.28767, -26.797
193.28518, -26.801
193.28268, -26.808
193.28019, -26.818
193.27770, -26.826
193.27521, -26.833
193.27271, -26.835
193.27022, -26.837
193.26773, -26.841
193.26524, -26.845
193.26275, -26.857
193.26025, -26.868
193.25776, -26.875
193.25527, -26.873
193.25278, -26.864
193.25029, -26.855
193.24780, -26.848
193.24531, -26.847
193.24281, -26.852
193.24032, -26.857
193.23783, -26.855
193.23534, -26.847
193.23285, -26.839
193.23036, -26.838
193.22787, -26.843
193.22538, -26.853
193.22289, -26.862
193.22040, -26.865
193.21791, -26.857
193.21541, -26.843
193.21292, -26.833
193.21043, -26.833
193.20794, -26.837
193.20545, -26.840
193.20296, -26.835
193.20047, -26.829
193.19798, -26.816
193.19549, -26.810
193.19300, -26.811
193.19051, -26.823
193.18802, -26.837
193.18553, -26.844
193.18304, -26.847
193.18055, -26.840
193.17806, -26.831
193.17557, -26.830
193.17308, -26.838
193.17060, -26.850
193.16811, -26.862
193.16562, -26.866
193.16313, -26.867
193.16064, -26.865
193.15815, -26.861
193.15566, -26.864
193.15317, -26.874
193.15068, -26.884
193.14819, -26.888
193.14570, -26.883
193.14322, -26.874
193.14073, -26.866
193.13824, -26.860
193.13575, -26.862
193.13326, -26.866
193.13077, -26.869
193.12829, -26.864
193.12580, -26.856
193.12331, -26.843
193.12082, -26.831
193.11833, -26.828
193.11584, -26.832
193.11336, -26.839
193.11087, -26.838
193.10838, -26.831
193.10589, -26.820
193.10341, -26.806
193.10092, -26.800
193.09843, -26.800
193.09594, -26.808
193.09346, -26.810
193.09097, -26.803
193.08848, -26.791
193.08599, -26.780
193.08351, -26.774
193.08102, -26.774
193.07853, -26.775
193.07605, -26.773
193.07356, -26.765
193.07107, -26.749
193.06858, -26.731
193.06610, -26.723
193.06361, -26.728
193.06112, -26.740
193.05864, -26.753
193.05615, -26.762
193.05367, -26.763
193.05118, -26.757
193.04869, -26.758
193.04621, -26.763
193.04372, -26.776
193.04123, -26.785
193.03875, -26.793
193.03626, -26.790
193.03378, -26.779
193.03129, -26.772
193.02881, -26.779
193.02632, -26.792
193.02383, -26.805
193.02135, -26.816
193.01886, -26.821
193.01638, -26.819
193.01389, -26.818
193.01141, -26.825
193.00892, -26.838
193.00644, -26.855
193.00395, -26.866
193.00147, -26.870
192.99898, -26.867
192.99650, -26.863
192.99401, -26.863
192.99153, -26.871
192.98904, -26.881
192.98656, -26.891
192.98407, -26.896
192.98159, -26.895
192.97910, -26.892
192.97662, -26.888
192.97413, -26.892
192.97165, -26.902
192.96917, -26.913
192.96668, -26.916
192.96420, -26.907
192.96171, -26.893
192.95923, -26.877
192.95675, -26.868
192.95426, -26.865
192.95178, -26.871
192.94929, -26.878
192.94681, -26.872
192.94433, -26.859
192.94184, -26.839
192.93936, -26.825
192.93688, -26.817
192.93439, -26.816
192.93191, -26.814
192.92943, -26.808
192.92694, -26.794
192.92446, -26.775
192.92198, -26.759
192.91949, -26.752
192.91701, -26.753
192.91453, -26.763
192.91205, -26.771
192.90956, -26.770
192.90708, -26.759
192.90460, -26.748
192.90212, -26.745
192.89963, -26.748
192.89715, -26.755
192.89467, -26.765
192.89219, -26.773
192.88970, -26.770
192.88722, -26.762
192.88474, -26.758
192.88226, -26.763
192.87978, -26.777
192.87729, -26.791
192.87481, -26.802
192.87233, -26.805
192.86985, -26.800
192.86737, -26.797
192.86489, -26.800
192.86240, -26.809
192.85992, -26.819
192.85744, -26.827
192.85496, -26.826
192.85248, -26.817
192.85000, -26.806
192.84752, -26.803
192.84504, -26.811
192.84256, -26.828
192.84007, -26.844
192.83759, -26.851
192.83511, -26.850
192.83263, -26.837
192.83015, -26.821
192.82767, -26.817
192.82519, -26.825
192.82271, -26.836
192.82023, -26.842
192.81775, -26.840
192.81527, -26.829
192.81279, -26.821
192.81031, -26.817
192.80783, -26.824
192.80535, -26.834
192.80287, -26.839
192.80039, -26.836
192.79791, -26.821
192.79543, -26.800
192.79295, -26.785
192.79047, -26.781
192.78799, -26.790
192.78551, -26.798
192.78303, -26.798
192.78055, -26.791
192.77807, -26.782
192.77559, -26.775
192.77311, -26.774
192.77064, -26.785
192.76816, -26.800
192.76568, -26.807
192.76320, -26.803
192.76072, -26.795
192.75824, -26.789
192.75576, -26.789
192.75328, -26.797
192.75080, -26.807
192.74833, -26.816
192.74585, -26.816
192.74337, -26.811
192.74089, -26.805
192.73841, -26.807
192.73593, -26.820
192.73346, -26.836
192.73098, -26.848
192.72850, -26.851
192.72602, -26.844
192.72354, -26.832
192.72107, -26.826
192.71859, -26.830
192.71611, -26.839
192.71363, -26.846
192.71116, -26.848
192.70868, -26.841
192.70620, -26.827
192.70372, -26.813
192.70125, -26.811
192.69877, -26.814
192.69629, -26.818
192.69381, -26.818
192.69134, -26.811
192.68886, -26.796
192.68638, -26.776
192.68391, -26.763
192.68143, -26.758
192.67895, -26.763
192.67648, -26.767
192.67400, -26.765
192.67152, -26.755
192.66905, -26.738
192.66657, -26.726
192.66409, -26.721
192.66162, -26.725
192.65914, -26.730
192.65666, -26.728
192.65419, -26.721
192.65171, -26.704
192.64924, -26.685
192.64676, -26.674
192.64428, -26.676
192.64181, -26.689
192.63933, -26.697
192.63686, -26.699
192.63438, -26.690
192.63191, -26.678
192.62943, -26.669
192.62696, -26.669
192.62448, -26.683
192.62200, -26.698
192.61953, -26.707
192.61705, -26.704
192.61458, -26.697
192.61210, -26.693
192.60963, -26.697
192.60715, -26.710
192.60468, -26.724
192.60220, -26.735
192.59973, -26.733
192.59726, -26.729
192.59478, -26.724
192.59231, -26.724
192.58983, -26.732
192.58736, -26.744
192.58488, -26.758
192.58241, -26.758
192.57993, -26.752
192.57746, -26.748
192.57499, -26.749
192.57251, -26.757
192.57004, -26.770
192.56756, -26.789
192.56509, -26.799
192.56262, -26.797
192.56014, -26.786
192.55767, -26.769
192.55520, -26.762
192.55272, -26.760
192.55025, -26.764
192.54778, -26.763
192.54530, -26.754
192.54283, -26.737
192.54036, -26.718
192.53788, -26.713
192.53541, -26.716
192.53294, -26.725
192.53046, -26.732
192.52799, -26.733
192.52552, -26.724
192.52305, -26.703
192.52057, -26.690
192.51810, -26.689
192.51563, -26.696
192.51315, -26.700
192.51068, -26.699
192.50821, -26.689
192.50574, -26.671
192.50327, -26.661
192.50079, -26.659
192.49832, -26.672
192.49585, -26.688
192.49338, -26.695
192.49091, -26.695
192.48843, -26.682
192.48596, -26.665
192.48349, -26.650
192.48102, -26.652
192.47855, -26.665
192.47608, -26.674
192.47360, -26.675
192.47113, -26.665
192.46866, -26.653
192.46619, -26.641
192.46372, -26.642
192.46125, -26.656
192.45878, -26.665
192.45630, -26.671
192.45383, -26.658
192.45136, -26.646
192.44889, -26.629
192.44642, -26.620
192.44395, -26.626
192.44148, -26.637
192.43901, -26.653
192.43654, -26.647
192.43407, -26.632
192.43160, -26.617
192.42913, -26.609
192.42666, -26.613
192.42419, -26.619
192.42172, -26.632
192.41925, -26.630
192.41678, -26.617
192.41431, -26.598
192.41184, -26.582
192.40937, -26.576
192.40690, -26.573
192.40443, -26.577
192.40196, -26.574
192.39949, -26.562
192.39702, -26.540
192.39455, -26.519
192.39208, -26.515
192.38961, -26.512
192.38714, -26.521
192.38467, -26.524
192.38220, -26.517
192.37973, -26.503
192.37727, -26.475
192.37480, -26.463
192.37233, -26.460
192.36986, -26.470
192.36739, -26.480
192.36492, -26.483
192.36245, -26.479
192.35998, -26.461
192.35752, -26.452
192.35505, -26.452
192.35258, -26.466
192.35011, -26.485
192.34764, -26.498
192.34517, -26.504
192.34271, -26.492
192.34024, -26.482
192.33777, -26.477
192.33530, -26.488
192.33283, -26.507
192.33037, -26.518
192.32790, -26.526
192.32543, -26.521
192.32296, -26.515
192.32050, -26.503
192.31803, -26.504
192.31556, -26.518
192.31309, -26.526
192.31063, -26.531
192.30816, -26.522
192.30569, -26.511
192.30322, -26.495
192.30076, -26.489
192.29829, -26.503
192.29582, -26.519
192.29336, -26.538
192.29089, -26.536
192.28842, -26.524
192.28596, -26.508
192.28349, -26.492
192.28102, -26.493
192.27856, -26.497
192.27609, -26.506
192.27362, -26.499
192.27116, -26.483
192.26869, -26.468
192.26623, -26.452
192.26376, -26.450
192.26129, -26.451
192.25883, -26.464
192.25636, -26.468
192.25390, -26.455
192.25143, -26.432
192.24896, -26.402
192.24650, -26.387
192.24403, -26.377
192.24157, -26.386
192.23910, -26.396
192.23664, -26.393
192.23417, -26.378
192.23171, -26.349
192.22924, -26.336
192.22678, -26.329
192.22431, -26.335
192.22185, -26.343
192.21938, -26.341
192.21692, -26.333
192.21445, -26.313
192.21199, -26.300
192.20952, -26.297
192.20706, -26.304
192.20459, -26.318
192.20213, -26.323
192.19966, -26.325
192.19720, -26.309
192.19473, -26.294
192.19227, -26.287
192.18981, -26.292
192.18734, -26.308
192.18488, -26.319
192.18241, -26.328
192.17995, -26.319
192.17749, -26.307
192.17502, -26.296
192.17256, -26.295
192.17009, -26.308
192.16763, -26.316
192.16517, -26.322
192.16270, -26.313
192.16024, -26.297
192.15778, -26.283
192.15531, -26.273
192.15285, -26.283
192.15039, -26.294
192.14792, -26.300
192.14546, -26.296
192.14300, -26.282
192.14054, -26.265
192.13807, -26.245
192.13561, -26.243
192.13315, -26.248
192.13068, -26.258
192.12822, -26.257
192.12576, -26.241
192.12330, -26.228
192.12083, -26.208
192.11837, -26.201
192.11591, -26.202
192.11345, -26.211
192.11099, -26.219
192.10852, -26.209
192.10606, -26.197
192.10360, -26.177
192.10114, -26.167
192.09868, -26.167
192.09621, -26.176
192.09375, -26.191
192.09129, -26.190
192.08883, -26.181
192.08637, -26.163
192.08391, -26.152
192.08144, -26.152
192.07898, -26.162
192.07652, -26.183
192.07406, -26.187
192.07160, -26.179
192.06914, -26.155
192.06668, -26.136
192.06422, -26.133
192.06175, -26.136
192.05929, -26.153
192.05683, -26.165
192.05437, -26.171
192.05191, -26.159
192.04945, -26.142
192.04699, -26.137
192.04453, -26.139
192.04207, -26.157
192.03961, -26.170
192.03715, -26.175
192.03469, -26.166
192.03223, -26.143
192.02977, -26.128
192.02731, -26.118
192.02485, -26.127
192.02239, -26.136
192.01993, -26.139
192.01747, -26.138
192.01501, -26.119
192.01255, -26.103
192.01009, -26.088
192.00763, -26.092
192.00517, -26.100
192.00271, -26.104
192.00025, -26.105
191.99779, -26.082
191.99533, -26.057
191.99287, -26.025
191.99042, -26.013
191.98796, -26.016
191.98550, -26.020
191.98304, -26.026
191.98058, -26.014
191.97812, -26.002
191.97566, -25.981
191.97320, -25.965
191.97075, -25.967
191.96829, -25.973
191.96583, -25.983
191.96337, -25.979
191.96091, -25.970
191.95845, -25.954
191.95599, -25.938
191.95354, -25.941
191.95108, -25.949
191.94862, -25.973
191.94616, -25.981
191.94370, -25.982
191.94125, -25.974
191.93879, -25.962
191.93633, -25.963
191.93387, -25.969
191.93142, -25.993
191.92896, -26.012
191.92650, -26.017
191.92404, -26.013
191.92159, -25.997
191.91913, -25.992
191.91667, -25.992
191.91422, -26.007
191.91176, -26.027
191.90930, -26.037
191.90684, -26.036
191.90439, -26.020
191.90193, -26.014
191.89947, -26.012
191.89702, -26.021
191.89456, -26.039
191.89210, -26.047
191.88965, -26.046
191.88719, -26.028
191.88473, -26.013
191.88228, -26.008
191.87982, -26.015
191.87737, -26.033
191.87491, -26.048
191.87245, -26.057
191.87000, -26.046
191.86754, -26.025
191.86509, -26.012
191.86263, -26.006
191.86017, -26.014
191.85772, -26.020
191.85526, -26.024
191.85281, -26.018
191.85035, -26.000
191.84790, -25.984
191.84544, -25.970
191.84299, -25.974
191.84053, -25.978
191.83808, -25.986
191.83562, -25.985
191.83316, -25.969
191.83071, -25.952
191.82826, -25.934
191.82580, -25.934
191.82335, -25.944
191.82089, -25.951
191.81844, -25.958
191.81598, -25.945
191.81353, -25.930
191.81107, -25.908
191.80862, -25.903
191.80616, -25.915
191.80371, -25.930
191.80125, -25.944
191.79880, -25.940
191.79635, -25.933
191.79389, -25.917
191.79144, -25.908
191.78898, -25.911
191.78653, -25.921
191.78408, -25.940
191.78162, -25.943
191.77917, -25.936
191.77672, -25.919
191.77426, -25.900
191.77181, -25.895
191.76936, -25.899
191.76690, -25.917
191.76445, -25.926
191.76200, -25.920
191.75954, -25.902
191.75709, -25.877
191.75464, -25.866
191.75218, -25.863
191.74973, -25.878
191.74728, -25.893
191.74482, -25.894
191.74237, -25.885
191.73992, -25.864
191.73747, -25.855
191.73501, -25.852
191.73256, -25.859
191.73011, -25.877
191.72766, -25.888
191.72520, -25.890
191.72275, -25.870
191.72030, -25.850
191.71785, -25.839
191.71540, -25.839
191.71294, -25.851
191.71049, -25.859
191.70804, -25.862
191.70559, -25.847
191.70314, -25.829
191.70068, -25.817
191.69823, -25.813
191.69578, -25.825
191.69333, -25.836
191.69088, -25.847
191.68843, -25.841
191.68598, -25.821
191.68352, -25.804
191.68107, -25.795
191.67862, -25.807
191.67617, -25.822
191.67372, -25.838
191.67127, -25.847
191.66882, -25.842
191.66637, -25.836
191.66392, -25.827
191.66147, -25.835
191.65902, -25.848
191.65657, -25.859
191.65412, -25.866
191.65166, -25.852
191.64921, -25.836
191.64676, -25.812
191.64431, -25.802
191.64186, -25.807
191.63941, -25.819
191.63696, -25.835
191.63451, -25.832
191.63206, -25.824
191.62961, -25.804
191.62716, -25.791
191.62471, -25.797
191.62226, -25.808
191.61981, -25.825
191.61737, -25.826
191.61492, -25.818
191.61247, -25.800
191.61002, -25.781
191.60757, -25.779
191.60512, -25.783
191.60267, -25.798
191.60022, -25.806
191.59777, -25.802
191.59532, -25.792
191.59287, -25.773
191.59042, -25.766
191.58798, -25.762
191.58553, -25.775
191.58308, -25.790
191.58063, -25.790
191.57818, -25.780
191.57573, -25.755
191.57328, -25.742
191.57084, -25.732
191.56839, -25.738
191.56594, -25.757
191.56349, -25.767
191.56104, -25.766
191.55860, -25.749
191.55615, -25.732
191.55370, -25.725
191.55125, -25.723
191.54880, -25.736
191.54636, -25.746
191.54391, -25.753
191.54146, -25.743
191.53901, -25.726
191.53657, -25.715
191.53412, -25.713
191.53167, -25.726
191.52922, -25.740
191.52678, -25.754
191.52433, -25.752
191.52188, -25.733
191.51944, -25.718
191.51699, -25.707
191.51454, -25.719
191.51209, -25.731
191.50965, -25.745
191.50720, -25.751
191.50475, -25.738
191.50231, -25.725
191.49986, -25.711
191.49741, -25.717
191.49497, -25.732
191.49252, -25.744
191.49008, -25.755
191.48763, -25.748
191.48518, -25.736
191.48274, -25.718
191.48029, -25.710
191.47785, -25.722
191.47540, -25.737
191.47295, -25.752
191.47051, -25.749
191.46806, -25.740
191.46562, -25.724
191.46317, -25.709
191.46072, -25.716
191.45828, -25.732
191.45583, -25.755
191.45339, -25.767
191.45094, -25.764
191.44850, -25.753
191.44605, -25.732
191.44361, -25.726
191.44116, -25.729
191.43872, -25.744
191.43627, -25.756
191.43383, -25.754
191.43138, -25.745
191.42894, -25.729
191.42649, -25.722
191.42405, -25.723
191.42160, -25.735
191.41916, -25.755
191.41672, -25.761
191.41427, -25.756
191.41183, -25.737
191.40938, -25.721
191.40694, -25.714
191.40449, -25.716
191.40205, -25.731
191.39961, -25.742
191.39716, -25.744
191.39472, -25.731
191.39228, -25.713
191.38983, -25.706
191.38739, -25.705
191.38494, -25.719
191.38250, -25.732
191.38006, -25.739
191.37761, -25.731
191.37517, -25.709
191.37273, -25.693
191.37028, -25.683
191.36784, -25.689
191.36540, -25.701
191.36295, -25.712
191.36051, -25.711
191.35807, -25.694
191.35563, -25.676
191.35318, -25.666
191.35074, -25.667
191.34830, -25.681
191.34586, -25.692
191.34341, -25.701
191.34097, -25.693
191.33853, -25.673
191.33609, -25.656
191.33364, -25.647
191.33120, -25.657
191.32876, -25.668
191.32632, -25.679
191.32387, -25.681
191.32143, -25.670
191.31899, -25.654
191.31655, -25.642
191.31411, -25.648
191.31167, -25.663
191.30922, -25.680
191.30678, -25.689
191.30434, -25.685
191.30190, -25.675
191.29946, -25.666
191.29702, -25.672
191.29457, -25.699
191.29213, -25.733
191.28969, -25.762
191.28725, -25.777
191.28481, -25.778
191.28237, -25.770
191.27993, -25.763
191.27749, -25.769
191.27505, -25.782
191.27261, -25.797
191.27017, -25.798
191.26772, -25.783
191.26528, -25.755
191.26284, -25.725
191.26040, -25.706
191.25796, -25.703
191.25552, -25.709
191.25308, -25.712
191.25064, -25.698
191.24820, -25.674
191.24576, -25.641
191.24332, -25.616
191.24088, -25.604
191.23844, -25.608
191.23600, -25.618
191.23356, -25.621
191.23112, -25.614
191.22868, -25.595
191.22624, -25.580
191.22380, -25.576
191.22137, -25.583
191.21893, -25.600
191.21649, -25.611
191.21405, -25.615
191.21161, -25.602
191.20917, -25.588
191.20673, -25.579
191.20429, -25.579
191.20185, -25.591
191.19941, -25.606
191.19697, -25.614
191.19454, -25.606
191.19210, -25.588
191.18966, -25.572
191.18722, -25.564
191.18478, -25.572
191.18234, -25.587
191.17990, -25.600
191.17747, -25.603
191.17503, -25.590
191.17259, -25.574
191.17015, -25.564
191.16771, -25.570
191.16528, -25.588
191.16284, -25.610
191.16040, -25.628
191.15796, -25.632
191.15552, -25.632
191.15309, -25.634
191.15065, -25.653
191.14821, -25.688
191.14577, -25.729
191.14334, -25.766
191.14090, -25.791
191.13846, -25.799
191.13602, -25.798
191.13359, -25.799
191.13115, -25.814
191.12871, -25.840
191.12628, -25.867
191.12384, -25.886
191.12140, -25.889
191.11897, -25.879
191.11653, -25.864
191.11409, -25.860
191.11166, -25.872
191.10922, -25.895
191.10678, -25.915
191.10435, -25.917
191.10191, -25.905
191.09947, -25.883
191.09704, -25.863
191.09460, -25.858
191.09216, -25.865
191.08973, -25.878
191.08729, -25.881
191.08486, -25.871
191.08242, -25.855
191.07998, -25.838
191.07755, -25.832
191.07511, -25.843
191.07268, -25.866
191.07024, -25.890
191.06781, -25.909
191.06537, -25.937
191.06294, -26.013
191.06050, -26.199
191.05807, -26.573
191.05563, -27.271
191.05319, -28.488
191.05076, -30.431
191.04832, -33.562
191.04589, -37.870
191.04345, -43.619
191.04102, -47.392
191.03859, -46.566
191.03615, -45.920
191.03372, -45.839
191.03128, -45.841
191.02885, -45.832
191.02641, -45.890
191.02398, -45.910
191.02154, -45.888
191.01911, -45.949
191.01668, -46.009
191.01424, -46.022
191.01181, -46.031
191.00937, -46.104
191.00694, -46.133
191.00451, -46.118
191.00207, -46.188
190.99964, -46.242
190.99720, -46.245
190.99477, -46.294
190.99234, -46.381
190.98990, -46.413
190.98747, -46.417
190.98504, -46.520
190.98260, -46.584
190.98017, -46.570
190.97774, -46.637
190.97530, -46.695
190.97287, -46.704
190.97044, -46.721
190.96800, -46.808
190.96557, -46.872
190.96314, -46.889
190.96071, -46.998
190.95827, -47.078
190.95584, -47.085
190.95341, -47.119
190.95098, -47.192
190.94854, -47.233
190.94611, -47.231
190.94368, -47.332
190.94125, -47.412
190.93881, -47.406
190.93638, -47.478
190.93395, -47.553
190.93152, -47.594
190.92909, -47.639
190.92665, -47.752
190.92422, -47.818
190.92179, -47.833
190.91936, -47.936
190.91693, -48.019
190.91449, -48.003
190.91206, -48.041
190.90963, -48.129
190.90720, -48.177
190.90477, -48.181
190.90234, -48.290
190.89991, -48.350
190.89748, -48.339
190.89504, -48.424
190.89261, -48.518
190.89018, -48.527
190.88775, -48.541
190.88532, -48.649
190.88289, -48.697
190.88046, -48.667
190.87803, -48.774
190.87560, -48.882
190.87317, -48.927
190.87074, -49.045
190.86831, -49.169
190.86588, -49.221
190.86345, -49.264
190.86101, -49.348
190.85858, -49.417
190.85615, -49.482
190.85372, -49.551
190.85129, -49.606
190.84886, -49.675
190.84643, -49.717
190.84400, -49.739
190.84158, -49.767
190.83915, -49.827
190.83672, -49.912
190.83429, -49.974
190.83186, -50.007
190.82943, -49.987
190.82700, -49.899
190.82457, -49.791
190.82214, -49.676
190.81971, -49.603
190.81728, -49.537
190.81485, -49.474
190.81242, -49.386
190.80999, -49.236
190.80757, -49.071
190.80514, -48.898
190.80271, -48.726
190.80028, -48.581
190.79785, -48.476
190.79542, -48.413
190.79299, -48.362
190.79056, -48.339
190.78814, -48.547
190.78571, -49.039
190.78328, -50.010
190.78085, -51.401
190.77842, -52.868
190.77600, -53.518
190.77357, -52.756
190.77114, -51.920
190.76871, -51.094
190.76628, -51.284
190.76386, -51.270
190.76143, -51.781
190.75900, -51.957
190.75657, -51.571
190.75415, -51.903
190.75172, -51.548
190.74929, -52.063
190.74686, -51.617
190.74444, -51.874
190.74201, -51.589
190.73958, -52.034
190.73715, -51.951
190.73473, -52.405
190.73230, -52.343
190.72987, -52.500
190.72745, -52.541
190.72502, -52.671
190.72259, -52.130
190.72017, -52.328
190.71774, -51.355
190.71531, -51.265
190.71289, -50.410
190.71046, -50.220
190.70803, -50.273
190.70561, -50.313
190.70318, -50.669
190.70076, -51.056
190.69833, -51.717
190.69590, -52.391
190.69348, -53.119
190.69105, -53.332
190.68863, -53.472
190.68620, -53.454
190.68377, -53.547
190.68135, -53.543
190.67892, -53.457
190.67650, -53.111
190.67407, -53.338
190.67165, -53.071
190.66922, -53.401
190.66680, -53.111
190.66437, -53.422
190.66195, -53.123
190.65952, -53.140
190.65710, -52.969
190.65467, -52.173
190.65225, -51.890
190.64982, -51.716
190.64740, -52.349
190.64497, -53.485
190.64255, -53.564
190.64012, -53.859
190.63770, -53.454
190.63527, -53.195
190.63285, -53.774
190.63042, -53.760
190.62800, -54.719
190.62558, -54.599
190.62315, -54.647
190.62073, -54.770
190.61830, -54.495
190.61588, -54.853
190.61346, -54.542
190.61103, -54.900
190.60861, -54.897
190.60618, -55.013
190.60376, -55.156
190.60134, -54.635
190.59891, -54.919
190.59649, -53.974
190.59407, -54.196
190.59164, -54.002
190.58922, -54.537
190.58680, -55.077
190.58437, -54.676
190.58195, -55.316
190.57953, -54.761
190.57710, -54.910
190.57468, -54.299
190.57226, -53.682
190.56983, -53.604
190.56741, -52.685
190.56499, -53.328
190.56257, -53.063
190.56014, -54.259
190.55772, -53.909
190.55530, -54.547
190.55288, -53.901
190.55045, -54.760
190.54803, -53.924
190.54561, -54.495
190.54319, -54.473
190.54077, -54.557
190.53834, -55.189
190.53592, -54.628
190.53350, -55.618
190.53108, -55.038
190.52866, -55.369
190.52623, -55.001
190.52381, -55.273
190.52139, -55.163
190.51897, -55.387
190.51655, -55.480
190.51413, -55.648
190.51171, -56.158
190.50928, -56.311
190.50686, -56.635
190.50444, -56.697
190.50202, -56.493
190.49960, -56.615
190.49718, -56.450
190.49476, -56.798
190.49234, -56.226
190.48992, -56.011
190.48750, -55.923
190.48507, -55.616
190.48265, -56.321
190.48023, -56.316
190.47781, -57.214
190.47539, -57.189
190.47297, -57.213
190.47055, -57.196
190.46813, -57.330
190.46571, -57.091
190.46329, -57.480
190.46087, -57.267
190.45845, -57.510
190.45603, -57.324
190.45361, -57.628
190.45119, -57.374
190.44877, -57.603
190.44635, -57.270
190.44393, -57.668
190.44151, -57.553
190.43909, -57.180
190.43667, -57.463
190.43425, -57.480
190.43184, -58.022
190.42942, -57.775
190.42700, -57.883
190.42458, -57.698
190.42216, -58.076
190.41974, -57.289
190.41732, -57.010
190.41490, -57.056
190.41248, -56.432
190.41006, -57.105
190.40765, -56.887
190.40523, -57.781
190.40281, -58.116
190.40039, -57.831
190.39797, -58.323
190.39555, -58.360
190.39313, -58.499
190.39072, -58.337
190.38830, -58.390
190.38588, -58.545
190.38346, -58.813
190.38104, -58.444
190.37863, -58.609
190.37621, -58.628
190.37379, -58.648
190.37137, -58.724
190.36895, -58.675
190.36654, -59.011
190.36412, -58.323
190.36170, -58.455
190.35928, -58.290
190.35687, -58.103
190.35445, -58.449
190.35203, -58.143
190.34961, -58.750
190.34720, -58.790
190.34478, -58.766
190.34236, -59.224
190.33995, -59.004
190.33753, -59.270
190.33511, -59.259
190.33270, -59.081
190.33028, -59.341
190.32786, -59.325
190.32545, -59.208
190.32303, -59.243
190.32061, -59.370
190.31820, -59.533
190.31578, -59.423
190.31336, -59.478
190.31095, -59.562
190.30853, -59.523
190.30611, -59.493
190.30370, -59.655
190.30128, -59.824
190.29887, -59.775
190.29645, -59.681
190.29404, -60.004
190.29162, -60.059
190.28920, -59.945
190.28679, -59.988
190.28437, -60.083
190.28196, -60.178
190.27954, -60.194
190.27713, -60.169
190.27471, -60.244
190.27230, -60.301
190.26988, -60.322
190.26747, -60.362
190.26505, -60.346
190.26264, -60.404
190.26022, -60.439
190.25781, -60.479
190.25539, -60.376
190.25298, -60.456
190.25056, -60.584
190.24815, -60.602
190.24573, -60.498
190.24332, -60.580
190.24090, -60.765
190.23849, -60.809
190.23607, -60.713
190.23366, -60.757
190.23125, -60.872
190.22883, -60.922
190.22642, -60.902
190.22400, -60.999
190.22159, -61.105
190.21918, -61.072
190.21676, -61.145
190.21435, -61.207
190.21193, -61.241
190.20952, -61.169
190.20711, -61.196
190.20469, -61.271
190.20228, -61.301
190.19987, -61.276
190.19745, -61.292
190.19504, -61.465
190.19263, -61.452
190.19021, -61.413
190.18780, -61.350
190.18539, -61.473
190.18297, -61.662
190.18056, -61.662
190.17815, -61.676
190.17573, -61.690
190.17332, -61.783
190.17091, -61.832
190.16850, -61.878
190.16608, -61.912
190.16367, -61.902
190.16126, -61.996
190.15885, -61.991
190.15643, -61.961
190.15402, -61.993
190.15161, -62.040
190.14920, -62.135
190.14679, -62.241
190.14437, -62.280
190.14196, -62.259
190.13955, -62.304
190.13714, -62.399
190.13473, -62.443
190.13231, -62.276
190.12990, -62.453
190.12749, -62.557
190.12508, -62.607
190.12267, -62.534
190.12026, -62.568
190.11785, -62.638
190.11543, -62.656
190.11302, -62.666
190.11061, -62.718
190.10820, -62.753
190.10579, -62.835
190.10338, -62.865
190.10097, -62.972
190.09856, -62.831
190.09615, -63.038
190.09374, -62.923
190.09132, -62.990
190.08891, -62.963
190.08650, -63.101
190.08409, -63.038
190.08168, -63.192
190.07927, -63.115
190.07686, -63.201
190.07445, -63.184
190.07204, -63.320
190.06963, -63.266
190.06722, -63.407
190.06481, -63.446
190.06240, -63.522
190.05999, -63.320
190.05758, -63.590
190.05517, -63.450
190.05276, -63.555
190.05035, -63.472
190.04794, -63.470
190.04553, -63.562
190.04312, -63.429
190.04071, -63.309
190.03831, -63.283
190.03590, -63.388
190.03349, -63.204
190.03108, -63.264
190.02867, -63.319
190.02626, -63.489
190.02385, -63.617
190.02144, -63.768
190.01903, -63.795
190.01662, -63.847
190.01422, -63.902
190.01181, -63.879
190.00940, -63.868
190.00699, -63.733
190.00458, -63.871
190.00217, -63.975
189.99976, -64.092
189.99736, -64.131
189.99495, -64.163
189.99254, -64.243
189.99013, -64.155
189.98772, -64.034
189.98532, -64.008
189.98291, -64.171
189.98050, -64.303
189.97809, -64.258
189.97568, -64.375
189.97328, -64.425
189.97087, -64.499
189.96846, -64.508
189.96605, -64.501
189.96365, -64.239
189.96124, -64.329
189.95883, -64.601
189.95642, -65.133
189.95402, -65.522
189.95161, -65.581
189.94920, -65.368
189.94680, -64.341
189.94439, -63.705
189.94198, -63.327
189.93958, -63.300
189.93717, -63.552
189.93476, -64.227
189.93236, -65.057
189.92995, -66.387
189.92754, -67.227
189.92514, -67.777
189.92273, -66.705
189.92032, -65.458
189.91792, -64.417
189.91551, -63.872
189.91310, -63.645
189.91070, -63.875
189.90829, -64.519
189.90589, -65.541
189.90348, -66.765
189.90107, -67.432
189.89867, -67.266
189.89626, -66.759
189.89386, -65.638
189.89145, -64.635
189.88905, -64.313
189.88664, -64.292
189.88423, -64.531
189.88183, -65.029
189.87942, -66.079
189.87702, -66.993
189.87461, -67.750
189.87221, -67.321
189.86980, -66.694
189.86740, -65.466
189.86499, -64.849
189.86259, -64.231
189.86018, -64.205
189.85778, -64.577
189.85537, -65.164
189.85297, -66.223
189.85057, -67.064
189.84816, -67.480
189.84576, -67.535
189.84335, -66.434
189.84095, -65.659
189.83854, -65.082
189.83614, -64.634
189.83373, -64.638
189.83133, -65.020
189.82893, -66.033
189.82652, -67.259
189.82412, -67.857
189.82172, -67.188
189.81931, -66.875
189.81691, -66.181
189.81450, -66.390
189.81210, -66.386
189.80970, -66.537
189.80729, -66.613
189.80489, -66.425
189.80249, -66.132
189.80008, -65.766
189.79768, -65.693
189.79528, -65.710
189.79287, -66.039
189.79047, -66.545
189.78807, -66.910
189.78566, -67.031
189.78326, -67.046
189.78086, -66.484
189.77846, -66.000
189.77605, -66.114
189.77365, -66.563
189.77125, -67.248
189.76885, -68.267
189.76644, -68.087
189.76404, -67.209
189.76164, -66.681
189.75924, -66.689
189.75683, -67.022
189.75443, -67.649
189.75203, -67.434
189.74963, -67.447
189.74723, -67.011
189.74482, -66.913
189.74242, -66.447
189.74002, -66.461
189.73762, -66.457
189.73522, -66.641
189.73282, -66.939
189.73041, -66.915
189.72801, -66.635
189.72561, -66.432
189.72321, -66.317
189.72081, -66.540
189.71841, -67.073
189.71601, -67.198
189.71360, -67.055
189.71120, -66.513
189.70880, -65.851
189.70640, -65.529
189.70400, -65.433
189.70160, -64.768
189.69920, -63.756
189.69680, -62.330
189.69440, -61.007
189.69200, -60.170
189.68960, -59.616
189.68720, -59.233
189.68480, -58.452
189.68240, -57.161
189.68000, -55.539
189.67760, -54.115
189.67520, -52.923
189.67280, -51.990
189.67040, -51.314
189.66800, -50.753
189.66560, -50.219
189.66320, -49.577
189.66080, -48.758
189.65840, -47.889
189.65600, -47.037
189.65360, -46.314
189.65120, -45.726
189.64880, -45.304
189.64640, -44.971
189.64400, -44.718
189.64160, -44.543
189.63920, -44.424
189.63680, -44.351
189.63440, -44.317
189.63200, -44.320
189.62960, -44.350
189.62721, -44.404
189.62481, -44.497
189.62241, -44.635
189.62001, -44.825
189.61761, -45.074
189.61521, -45.375
189.61281, -45.721
189.61041, -46.124
189.60802, -46.573
189.60562, -47.081
189.60322, -47.678
189.60082, -48.354
189.59842, -49.117
189.59603, -49.960
189.59363, -50.824
189.59123, -51.672
189.58883, -52.473
189.58643, -53.218
189.58404, -54.051
189.58164, -54.954
189.57924, -56.018
189.57684, -57.275
189.57444, -58.731
189.57205, -60.349
189.56965, -61.978
189.56725, -63.214
189.56485, -63.529
189.56246, -63.198
189.56006, -62.806
189.55766, -62.887
189.55527, -63.254
189.55287, -64.107
189.55047, -65.013
189.54808, -66.190
189.54568, -67.040
189.54328, -67.900
189.54088, -68.295
189.53849, -68.255
189.53609, -67.787
189.53369, -67.439
189.53130, -67.452
189.52890, -67.434
189.52651, -67.490
189.52411, -66.877
189.52171, -67.129
189.51932, -67.273
189.51692, -67.898
189.51452, -69.023
189.51213, -70.324
189.50973, -70.294
189.50734, -69.595
189.50494, -68.411
189.50255, -68.071
189.50015, -68.267
189.49775, -68.643
189.49536, -69.348
189.49296, -69.942
189.49057, -70.554
189.48817, -69.733
189.48578, -69.701
189.48338, -69.690
189.48099, -69.218
189.47859, -68.879
189.47620, -68.187
189.47380, -68.623
189.47141, -69.086
189.46901, -69.182
189.46662, -68.885
189.46422, -68.272
189.46183, -68.040
189.45943, -68.396
189.45704, -69.171
189.45464, -68.701
189.45225, -68.737
189.44985, -68.207
189.44746, -67.939
189.44506, -67.406
189.44267, -67.553
189.44028, -68.156
189.43788, -68.842
189.43549, -69.117
189.43309, -69.584
189.43070, -69.656
189.42831, -68.949
189.42591, -66.430
189.42352, -64.495
189.42113, -63.671
189.41873, -64.053
189.41634, -63.586
189.41394, -62.565
189.41155, -62.253
189.40916, -62.632
189.40676, -63.201
189.40437, -64.097
189.40198, -64.648
189.39958, -63.453
189.39719, -62.439
189.39480, -63.020
189.39241, -65.045
189.39001, -63.042
189.38762, -61.378
189.38523, -61.587
189.38283, -63.811
189.38044, -66.283
189.37805, -65.596
189.37566, -63.815
189.37326, -62.657
189.37087, -62.724
189.36848, -64.296
189.36609, -65.899
189.36369, -64.615
189.36130, -63.641
189.35891, -63.580
189.35652, -62.823
189.35413, -62.510
189.35173, -62.743
189.34934, -64.794
189.34695, -66.589
189.34456, -66.193
189.34217, -66.163
189.33977, -63.700
189.33738, -61.726
189.33499, -61.217
189.33260, -61.232
189.33021, -61.496
189.32782, -61.703
189.32543, -62.689
189.32304, -63.995
189.32064, -64.732
189.31825, -65.768
189.31586, -67.654
189.31347, -68.194
189.31108, -67.454
189.30869, -68.400
189.30630, -70.296
189.30391, -73.034
189.30152, -72.469
189.29913, -72.843
189.29674, -73.392
189.29434, -72.814
189.29195, -73.101
189.28956, -72.429
189.28717, -71.532
189.28478, -72.883
189.28239, -72.031
189.28000, -71.979
189.27761, -71.733
189.27522, -71.828
189.27283, -70.741
189.27044, -70.698
189.26805, -71.017
189.26566, -70.924
189.26327, -71.138
189.26088, -71.074
189.25849, -71.723
189.25611, -71.568
189.25372, -71.767
189.25133, -72.766
189.24894, -72.540
189.24655, -72.549
189.24416, -72.953
189.24177, -73.019
189.23938, -72.221
189.23699, -70.485
189.23460, -71.116
189.23221, -70.772
189.22982, -71.111
189.22744, -71.351
189.22505, -71.685
189.22266, -73.070
189.22027, -73.170
189.21788, -72.708
189.21549, -72.053
189.21310, -71.675
189.21072, -71.092
189.20833, -73.070
189.20594, -72.823
189.20355, -72.128
189.20116, -72.215
189.19877, -72.545
189.19639, -72.799
189.19400, -72.018
189.19161, -72.038
189.18922, -72.837
189.18683, -72.579
189.18445, -72.860
189.18206, -72.118
189.17967, -72.535
189.17728, -73.026
189.17490, -72.701
189.17251, -72.027
189.17012, -71.577
189.16773, -71.796
189.16535, -72.243
189.16296, -72.196
189.16057, -72.943
189.15819, -71.161
189.15580, -70.736
189.15341, -70.958
189.15102, -71.252
189.14864, -73.018
189.14625, -74.084
189.14386, -74.695
189.14148, -72.884
189.13909, -71.682
189.13670, -70.470
189.13432, -71.252
189.13193, -70.967
189.12955, -72.196
189.12716, -73.447
189.12477, -75.741
189.12239, -75.461
189.12000, -75.848
189.11761, -76.496
189.11523, -73.576
189.11284, -72.388
189.11046, -71.378
189.10807, -70.772
189.10569, -71.112
189.10330, -71.612
189.10091, -71.652
189.09853, -71.528
189.09614, -70.136
189.09376, -69.581
189.09137, -69.003
189.08899, -67.822
189.08660, -68.614
189.08422, -70.113
189.08183, -72.810
189.07945, -71.509
189.07706, -69.579
189.07468, -68.534
189.07229, -69.841
189.06991, -72.790
189.06752, -77.032
189.06514, -77.710
189.06275, -80.407
189.06037, -76.839
189.05798, -75.970
189.05560, -74.373
189.05321, -73.715
189.05083, -74.065
189.04845, -73.597
189.04606, -74.167
189.04368, -73.311
189.04129, -73.246
189.03891, -74.350
189.03653, -73.624
189.03414, -74.046
189.03176, -73.307
189.02937, -72.806
189.02699, -73.705
189.02461, -74.004
189.02222, -74.340
189.01984, -75.076
189.01746, -73.523
189.01507, -73.602
189.01269, -74.895
189.01031, -74.083
189.00792, -73.822
189.00554, -73.692
189.00316, -74.452
189.00077, -73.554
188.99839, -74.814
188.99601, -74.211
188.99362, -74.259
188.99124, -75.024
188.98886, -73.765
188.98647, -73.295
188.98409, -74.715
188.98171, -74.847
188.97933, -73.933
188.97694, -74.288
188.97456, -74.467
188.97218, -73.577
188.96980, -75.490
188.96742, -73.798
188.96503, -74.580
188.96265, -76.714
188.96027, -74.679
188.95789, -75.897
188.95550, -74.995
188.95312, -74.260
188.95074, -74.240
188.94836, -74.890
188.94598, -74.800
188.94360, -74.925
188.94121, -74.384
188.93883, -75.647
188.93645, -74.431
188.93407, -74.890
188.93169, -74.627
188.92931, -74.958
188.92693, -75.081
188.92454, -74.714
188.92216, -74.590
188.91978, -75.045
188.91740, -74.354
188.91502, -73.813
188.91264, -75.176
188.91026, -74.880
188.90788, -74.589
188.90550, -74.550
188.90312, -75.644
188.90074, -73.696
188.89836, -77.102
188.89598, -77.271
188.89360, -75.273
188.89121, -75.577
188.88883, -75.461
188.88645, -75.823
188.88407, -75.842
188.88169, -76.178
188.87931, -76.211
188.87693, -76.345
188.87455, -74.663
188.87217, -75.473
188.86979, -75.479
188.86741, -75.787
188.86503, -74.637
188.86266, -74.902
188.86028, -76.372
188.85790, -75.242
188.85552, -75.297
188.85314, -76.109
188.85076, -75.184
188.84838, -75.238
188.84600, -76.493
188.84362, -75.500
188.84124, -77.128
188.83886, -76.019
188.83648, -76.308
188.83410, -75.387
188.83173, -75.773
188.82935, -75.814
188.82697, -76.481
188.82459, -77.383
188.82221, -76.193
188.81983, -75.012
188.81745, -76.649
188.81508, -77.194
188.81270, -75.179
188.81032, -77.396
188.80794, -75.770
188.80556, -76.155
188.80318, -76.313
188.80081, -76.085
188.79843, -76.617
188.79605, -76.175
188.79367, -76.989
188.79129, -78.233
188.78892, -75.810
188.78654, -78.597
188.78416, -76.207
188.78178, -77.100
188.77941, -75.791
188.77703, -76.620
188.77465, -77.427
188.77227, -75.536
188.76990, -76.738
188.76752, -76.774
188.76514, -76.371
188.76277, -75.344
